File: data/processed/Run1_XRD/10_ReMoB2_49p0GPa_490psi_P1_C4_D1w_077.dat
2.82731  0.626499
2.90325  0.0868292
2.9792  1.11699
3.05514  0.0519903
3.13109  1.70057
3.20703  1.17464
3.28298  2.60513
3.35892  3.35725
3.43487  11.4149
3.51081  28.0668
3.58676  12.1897
3.6627  3.46245
3.73864  1.73145
3.81459  2.2612
3.89053  0.886446
3.96648  1.4557
4.04242  0.658855
4.11837  0.737872
4.19431  1.22971
4.27026  0.437814
4.3462  -0.330892
4.42215  0.244823
4.49809  0.178539
4.57404  0.766397
4.64998  0.379417
4.72593  0.825981
4.80187  0.706631
4.87782  0.544209
4.95376  0.185624
5.02971  0.176523
5.10565  1.34565
5.1816  0.331215
5.25754  1.15434
5.33349  1.14617
5.40943  0.910927
5.48537  1.19182
5.56132  0.872343
5.63726  0.509788
5.71321  0.575881
5.78915  1.16034
5.8651  -0.110149
5.94104  0.829329
6.01699  0.49798
6.09293  -0.537919
6.16888  0.238804
6.24482  0.454051
6.32077  0.373871
6.39671  1.57557
6.47266  3.09691
6.5486  2.56922
6.62455  4.45205
6.70049  15.6826
6.77644  26.5962
6.85238  29.0157
6.92833  64.2744
7.00427  150.398
7.08021  139.013
7.15616  63.807
7.2321  18.0817
7.30805  6.42387
7.38399  4.03609
7.45994  2.40155
7.53588  1.33683
7.61183  1.34692
7.68777  1.6498
7.76372  0.586053
7.83966  -0.24717
7.91561  0.446677
7.99155  0.68114
8.0675  0.34352
8.14344  -0.433053
8.21939  -0.040792
8.29533  0.492611
8.37128  0.030187
8.44722  0.602272
8.52317  1.09779
8.59911  0.909903
8.67506  0.0340772
8.751  0.686582
8.82694  0.11846
8.90289  -0.547073
8.97883  0.495648
9.05478  3.52632
9.13072  13.7696
9.20667  57.6786
9.28261  124.457
9.35856  153.311
9.4345  329.693
9.51045  967.288
9.58639  1249.52
9.66234  871.395
9.73828  472.477
9.81423  211.652
9.89017  79.559
9.96612  29.8399
10.0421  10.4201
10.118  4.76969
10.194  2.98888
10.2699  -1.15673
10.3458  -2.31883
10.4218  3.44143
10.4977  11.8477
10.5737  16.078
10.6496  30.2973
10.7256  50.9347
10.8015  67.5949
10.8775  90.3809
10.9534  111.593
11.0293  120.907
11.1053  125.614
11.1812  105.284
11.2572  90.505
11.3331  76.1668
11.4091  40.5651
11.485  11.5514
11.561  3.9578
11.6369  1.02236
11.7128  -1.41806
11.7888  0.126161
11.8647  4.50976
11.9407  8.60857
12.0166  9.63575
12.0926  18.5008
12.1685  31.3183
12.2445  19.3075
12.3204  11.9583
12.3963  18.6004
12.4723  32.9624
12.5482  63.5632
12.6242  129.387
12.7001  152.599
12.7761  140.257
12.852  124.507
12.928  130.567
13.0039  138.865
13.0799  131.666
13.1558  109.15
13.2317  101.152
13.3077  85.1147
13.3836  60.6235
13.4596  52.9025
13.5355  39.2559
13.6115  15.5301
13.6874  0.826331
13.7634  -2.70634
13.8393  0.665374
13.9152  7.16309
13.9912  11.5244
14.0671  13.9777
14.1431  10.3841
14.219  6.42978
14.295  2.67688
14.3709  0.840781
14.4469  0.190771
14.5228  -0.110349
14.5987  -0.704819
14.6747  0.011314
14.7506  -0.18357
14.8266  0.593229
14.9025  0.331088
14.9785  1.10503
15.0544  0.750123
15.1304  0.101745
15.2063  0.811505
15.2823  0.0320209
15.3582  0.327476
15.4341  -0.0328736
15.5101  0.322029
15.586  0.193803
15.662  0.471277
15.7379  1.55612
15.8139  2.54879
15.8898  4.04964
15.9658  7.5694
16.0417  10.2027
16.1176  17.164
16.1936  52.6501
16.2695  80.9829
16.3455  35.0163
16.4214  28.9315
16.4974  32.5572
16.5733  30.2079
16.6493  19.1342
16.7252  16.3658
16.8011  15.0369
16.8771  9.5597
16.953  9.71322
17.029  5.01515
17.1049  1.38639
17.1809  -0.36715
17.2568  -0.936245
17.3328  -0.512288
17.4087  -0.353643
17.4846  2.1682
17.5606  6.50634
17.6365  9.04844
17.7125  12.8536
17.7884  19.8679
17.8644  46.3424
17.9403  162.452
18.0163  299.615
18.0922  182.65
18.1682  116.817
18.2441  77.971
18.32  46.351
18.396  22.0102
18.4719  12.17
18.5479  8.56223
18.6238  8.74186
18.6998  9.58192
18.7757  14.1503
18.8517  24.8253
18.9276  32.9408
19.0035  39.7662
19.0795  40.5371
19.1554  35.1855
19.2314  25.5679
19.3073  12.3654
19.3833  3.24094
19.4592  1.32745
19.5352  6.57373
19.6111  19.5949
19.687  43.8063
19.763  63.4224
19.8389  64.1096
19.9149  43.9765
19.9908  30.3067
20.0668  23.2255
20.1427  18.6041
20.2187  14.9339
20.2946  12.2857
20.3706  11.7766
20.4465  11.2641
20.5224  11.2529
20.5984  12.487
20.6743  13.4318
20.7503  14.758
20.8262  16.4206
20.9022  17.6706
20.9781  20.802
21.0541  24.1518
21.13  29.51
21.2059  33.3038
21.2819  33.3748
21.3578  24.7195
21.4338  10.6115
21.5097  2.62891
21.5857  -0.578467
21.6616  0.718248
21.7376  9.03865
21.8135  13.8611
21.8894  13.594
21.9654  14.0239
22.0413  10.0069
22.1173  5.59098
22.1932  3.19866
22.2692  0.737934
22.3451  -0.436488
22.4211  -0.0160967
22.497  0.180846
22.5729  0.856021
22.6489  0.104979
22.7248  0.0299278
22.8008  0.173266
22.8767  0.000312109
22.9527  0.211813
23.0286  -0.110535
23.1046  1.97641
23.1805  0.393099
23.2565  -0.0223803
23.3324  0.272458
23.4083  0.13762
23.4843  0.185878
23.5602  0.0241403
23.6362  0.56059
23.7121  0.113256
23.7881  0.106688
23.864  0.281735
23.94  0.0220134
24.0159  0.308482
24.0918  0.145375
24.1678  -0.288778
24.2437  -0.23208