File: data/processed/Run1_XRD/11_ReMoB2_52p0GPa_520psi_P1_C4_D1w_083.dat
2.82731  0.410008
2.90325  1.14771
2.9792  1.11339
3.05514  1.15953
3.13109  1.94455
3.20703  1.59342
3.28298  2.92973
3.35892  3.92528
3.43487  11.645
3.51081  37.7305
3.58676  14.7026
3.6627  3.37633
3.73864  1.49318
3.81459  1.87567
3.89053  0.156667
3.96648  1.53964
4.04242  0.0695828
4.11837  1.08561
4.19431  0.911415
4.27026  0.269677
4.3462  0.82147
4.42215  0.884941
4.49809  0.739905
4.57404  0.0964966
4.64998  0.876042
4.72593  0.74806
4.80187  0.526657
4.87782  0.113565
4.95376  0.954236
5.02971  0.451762
5.10565  0.500412
5.1816  0.20251
5.25754  1.30438
5.33349  1.64026
5.40943  -0.275447
5.48537  0.890418
5.56132  1.36142
5.63726  1.98165
5.71321  1.76551
5.78915  0.867285
5.8651  0.772946
5.94104  -0.0385051
6.01699  0.318768
6.09293  0.438761
6.16888  0.0821066
6.24482  -0.2072
6.32077  1.08578
6.39671  2.75039
6.47266  3.7403
6.5486  3.99372
6.62455  5.67327
6.70049  17.2757
6.77644  33.2714
6.85238  34.417
6.92833  62.5928
7.00427  182.718
7.08021  208.061
7.15616  75.9478
7.2321  22.9047
7.30805  9.14592
7.38399  4.87798
7.45994  3.27742
7.53588  1.85568
7.61183  0.307644
7.68777  0.59886
7.76372  0.88483
7.83966  0.872623
7.91561  0.372811
7.99155  0.322813
8.0675  0.231389
8.14344  -0.0272363
8.21939  0.0407782
8.29533  0.0207961
8.37128  0.00368305
8.44722  0.831476
8.52317  1.42942
8.59911  1.09565
8.67506  0.124559
8.751  0.30932
8.82694  -0.377827
8.90289  -0.751308
8.97883  0.728941
9.05478  4.79425
9.13072  18.1145
9.20667  61.5494
9.28261  148.288
9.35856  276.84
9.4345  379.013
9.51045  712.613
9.58639  1062.57
9.66234  1023.31
9.73828  640.187
9.81423  295.375
9.89017  121.474
9.96612  48.9161
10.0421  17.0459
10.118  5.58179
10.194  1.43962
10.2699  -1.2931
10.3458  -1.19135
10.4218  -2.14443
10.4977  2.61332
10.5737  11.8666
10.6496  17.9827
10.7256  30.4523
10.8015  47.8965
10.8775  66.4121
10.9534  82.1946
11.0293  100.366
11.1053  110.152
11.1812  94.843
11.2572  82.1985
11.3331  93.9675
11.4091  79.47
11.485  36.6667
11.561  14.8391
11.6369  5.35218
11.7128  0.226367
11.7888  -0.563196
11.8647  1.76895
11.9407  5.87623
12.0166  11.9788
12.0926  29.9187
12.1685  70.5953
12.2445  61.8138
12.3204  24.1922
12.3963  17.2113
12.4723  22.4126
12.5482  39.2786
12.6242  78.1675
12.7001  117.623
12.7761  118.751
12.852  104.989
12.928  100.636
13.0039  106.017
13.0799  112.623
13.1558  111.247
13.2317  99.652
13.3077  80.9116
13.3836  59.947
13.4596  50.2597
13.5355  49.6054
13.6115  34.8529
13.6874  11.5168
13.7634  -1.26649
13.8393  -1.56622
13.9152  0.970661
13.9912  6.81398
14.0671  15.3234
14.1431  16.8588
14.219  7.87266
14.295  2.9905
14.3709  1.26131
14.4469  0.116181
14.5228  -0.578436
14.5987  -0.423767
14.6747  -0.0348169
14.7506  0.270128
14.8266  0.312291
14.9025  -0.289304
14.9785  0.395665
15.0544  1.06609
15.1304  1.15986
15.2063  0.368753
15.2823  -0.451742
15.3582  -0.0979087
15.4341  0.178127
15.5101  -0.262778
15.586  0.367308
15.662  0.688678
15.7379  1.35151
15.8139  2.38961
15.8898  3.99
15.9658  6.25166
16.0417  9.46395
16.1176  12.9067
16.1936  20.8534
16.2695  41.4145
16.3455  40.6058
16.4214  26.7031
16.4974  28.9827
16.5733  38.9832
16.6493  36.3843
16.7252  20.7186
16.8011  13.819
16.8771  9.1324
16.953  7.60228
17.029  5.99508
17.1049  2.92085
17.1809  0.685898
17.2568  -0.408483
17.3328  -0.880654
17.4087  -0.664993
17.4846  0.59002
17.5606  3.35043
17.6365  7.18807
17.7125  10.1431
17.7884  14.0036
17.8644  22.4811
17.9403  44.6826
18.0163  92.7443
18.0922  135.297
18.1682  127.467
18.2441  83.9265
18.32  49.8725
18.396  33.4313
18.4719  19.0309
18.5479  10.682
18.6238  7.08566
18.6998  6.51486
18.7757  8.55639
18.8517  13.0279
18.9276  19.099
19.0035  28.7311
19.0795  40.5534
19.1554  43.2009
19.2314  33.4873
19.3073  19.6478
19.3833  8.42511
19.4592  2.03702
19.5352  1.54633
19.6111  8.13148
19.687  23.9837
19.763  47.062
19.8389  65.1602
19.9149  67.3916
19.9908  57.9247
20.0668  45.0267
20.1427  31.3489
20.2187  24.1331
20.2946  19.8106
20.3706  17.2095
20.4465  14.2327
20.5224  12.506
20.5984  12.3078
20.6743  12.0078
20.7503  13.0541
20.8262  13.6669
20.9022  13.8107
20.9781  15.7377
21.0541  16.8309
21.13  17.4533
21.2059  15.9107
21.2819  12.7294
21.3578  9.48371
21.4338  6.45652
21.5097  2.67719
21.5857  0.141677
21.6616  -0.723857
21.7376  1.0261
21.8135  6.06745
21.8894  14.7201
21.9654  26.7098
22.0413  24.9831
22.1173  11.3869
22.1932  4.18265
22.2692  1.82164
22.3451  -0.194468
22.4211  -0.796531
22.497  0.0812198
22.5729  1.66575
22.6489  1.73157
22.7248  3.59778
22.8008  1.41374
22.8767  -0.265186
22.9527  -0.00421618
23.0286  0.360718
23.1046  0.468756
23.1805  0.42023
23.2565  -0.0358996
23.3324  0.36209
23.4083  0.498275
23.4843  0.0243342
23.5602  -0.123759
23.6362  0.268452
23.7121  0.444981
23.7881  0.0830091
23.864  0.297048
23.94  0.372404
24.0159  -0.0979675
24.0918  -0.0680464
24.1678  0.16048
24.2437  -0.0409469