File: data/processed/Run1_XRD/12_ReMoB2_60p0GPa_545psi_P1_C4_D1w_089.dat
2.82731  0.576884
2.90325  -0.111832
2.9792  1.52194
3.05514  1.47044
3.13109  1.42715
3.20703  1.25879
3.28298  2.86518
3.35892  3.45959
3.43487  10.0833
3.51081  34.334
3.58676  18.1511
3.6627  3.47757
3.73864  1.75712
3.81459  1.59339
3.89053  1.42428
3.96648  1.05697
4.04242  0.523209
4.11837  1.16614
4.19431  0.811664
4.27026  0.897458
4.3462  0.415196
4.42215  0.15714
4.49809  -0.390445
4.57404  0.17674
4.64998  0.147187
4.72593  1.16731
4.80187  1.09257
4.87782  0.694001
4.95376  1.1759
5.02971  1.68025
5.10565  0.140818
5.1816  -0.213073
5.25754  0.499886
5.33349  0.362136
5.40943  1.05159
5.48537  0.651068
5.56132  1.0078
5.63726  0.800145
5.71321  2.15797
5.78915  1.25703
5.8651  1.42485
5.94104  0.505632
6.01699  1.12122
6.09293  0.771901
6.16888  -0.507374
6.24482  1.21528
6.32077  1.64178
6.39671  2.39542
6.47266  5.888
6.5486  3.38183
6.62455  5.22198
6.70049  13.9485
6.77644  33.5247
6.85238  36.3341
6.92833  50.2089
7.00427  146.721
7.08021  232.278
7.15616  100.185
7.2321  28.5677
7.30805  11.0049
7.38399  5.80332
7.45994  2.67359
7.53588  1.83546
7.61183  0.167713
7.68777  0.689847
7.76372  1.48509
7.83966  -0.115938
7.91561  0.381902
7.99155  -0.367671
8.0675  -0.386748
8.14344  0.510793
8.21939  -0.255709
8.29533  0.281819
8.37128  0.540046
8.44722  0.909063
8.52317  1.53693
8.59911  0.859648
8.67506  0.246186
8.751  -0.41027
8.82694  -1.27426
8.90289  0.0207571
8.97883  0.809108
9.05478  4.81412
9.13072  16.0876
9.20667  61.1084
9.28261  232.612
9.35856  537.334
9.4345  489.499
9.51045  585.12
9.58639  1078.09
9.66234  1123.68
9.73828  758.931
9.81423  370.74
9.89017  172.637
9.96612  77.6578
10.0421  30.159
10.118  9.74984
10.194  2.05576
10.2699  -1.06244
10.3458  -1.31091
10.4218  -1.9228
10.4977  -0.386416
10.5737  8.33948
10.6496  13.6765
10.7256  19.8967
10.8015  33.9631
10.8775  52.6576
10.9534  69.5192
11.0293  87.3718
11.1053  104.897
11.1812  98.8786
11.2572  82.7426
11.3331  84.0214
11.4091  79.3885
11.485  45.2883
11.561  17.745
11.6369  8.46435
11.7128  1.77158
11.7888  -0.349457
11.8647  -0.0779211
11.9407  2.99772
12.0166  11.6761
12.0926  33.4212
12.1685  78.1893
12.2445  100.675
12.3204  44.7745
12.3963  19.5565
12.4723  19.2003
12.5482  25.9356
12.6242  44.3103
12.7001  78.2085
12.7761  104.154
12.852  106.754
12.928  103.699
13.0039  105.165
13.0799  107.447
13.1558  114.856
13.2317  108.339
13.3077  91.0203
13.3836  66.9775
13.4596  49.9516
13.5355  39.8203
13.6115  30.522
13.6874  14.4872
13.7634  1.13489
13.8393  -2.17278
13.9152  1.60458
13.9912  7.12685
14.0671  14.2555
14.1431  23.9394
14.219  14.2159
14.295  5.9657
14.3709  2.38838
14.4469  0.073491
14.5228  -0.50969
14.5987  -0.221819
14.6747  -0.615436
14.7506  -0.590223
14.8266  0.481406
14.9025  -0.126601
14.9785  0.0549373
15.0544  0.549208
15.1304  1.43965
15.2063  1.16236
15.2823  0.0601871
15.3582  0.314402
15.4341  0.556904
15.5101  -0.136808
15.586  0.0958366
15.662  1.14212
15.7379  0.636171
15.8139  1.73973
15.8898  3.13866
15.9658  4.39169
16.0417  7.12358
16.1176  9.57841
16.1936  11.6749
16.2695  17.043
16.3455  21.5386
16.4214  19.4357
16.4974  23.3546
16.5733  39.7902
16.6493  55.526
16.7252  45.7477
16.8011  26.6149
16.8771  12.5336
16.953  7.552
17.029  6.45556
17.1049  4.39588
17.1809  1.10187
17.2568  -0.284824
17.3328  -0.867751
17.4087  -0.285392
17.4846  -0.0152328
17.5606  1.08097
17.6365  4.49658
17.7125  7.72302
17.7884  9.82777
17.8644  14.1947
17.9403  24.9683
18.0163  50.4135
18.0922  92.0385
18.1682  122.019
18.2441  93.7923
18.32  52.3797
18.396  33.9178
18.4719  25.2409
18.5479  15.7996
18.6238  8.21004
18.6998  7.49953
18.7757  7.27243
18.8517  10.1472
18.9276  12.785
19.0035  17.1268
19.0795  22.54
19.1554  29.2098
19.2314  29.9362
19.3073  20.6257
19.3833  11.0909
19.4592  3.8969
19.5352  1.59406
19.6111  3.03922
19.687  12.4766
19.763  31.697
19.8389  56.4681
19.9149  71.1612
19.9908  68.5297
20.0668  51.2313
20.1427  38.219
20.2187  29.1222
20.2946  23.81
20.3706  22.0355
20.4465  17.4224
20.5224  14.0873
20.5984  12.219
20.6743  11.0423
20.7503  11.2866
20.8262  11.2652
20.9022  11.6682
20.9781  12.8671
21.0541  12.695
21.13  13.4418
21.2059  12.2802
21.2819  10.3371
21.3578  7.17191
21.4338  4.43988
21.5097  2.21778
21.5857  1.09582
21.6616  0.184097
21.7376  -0.667252
21.8135  0.55448
21.8894  5.88879
21.9654  17.2547
22.0413  32.2695
22.1173  25.5445
22.1932  10.0998
22.2692  4.77994
22.3451  0.929755
22.4211  -0.244779
22.497  -0.217311
22.5729  1.39022
22.6489  1.59991
22.7248  0.737012
22.8008  -0.319058
22.8767  0.349723
22.9527  0.297254
23.0286  0.378348
23.1046  -0.0772569
23.1805  0.0246829
23.2565  0.240346
23.3324  0.194725
23.4083  0.341579
23.4843  0.67699
23.5602  0.100921
23.6362  0.301267
23.7121  0.259768
23.7881  0.215673
23.864  0.593201
23.94  0.258003
24.0159  -0.288921
24.0918  0.339017
24.1678  -0.346105
24.2437  -0.16141