File: data/processed/Run1_XRD/13_ReMoB2_62p0GPa_570psi_P1_C4_D1w_095.dat
2.82731  0.53628
2.90325  0.850924
2.9792  0.195001
3.05514  1.30747
3.13109  1.89673
3.20703  1.1436
3.28298  3.21744
3.35892  4.4392
3.43487  9.71871
3.51081  25.9194
3.58676  18.6059
3.6627  6.62114
3.73864  4.10095
3.81459  3.10877
3.89053  2.66216
3.96648  2.03115
4.04242  0.878651
4.11837  2.79897
4.19431  1.5468
4.27026  0.277842
4.3462  2.14141
4.42215  -0.223555
4.49809  0.5589
4.57404  -0.114288
4.64998  0.623422
4.72593  1.46562
4.80187  0.29823
4.87782  0.101464
4.95376  0.990044
5.02971  0.774549
5.10565  1.59038
5.1816  0.0828199
5.25754  0.468291
5.33349  -0.048937
5.40943  0.706651
5.48537  0.69632
5.56132  1.19966
5.63726  0.589233
5.71321  0.683376
5.78915  1.71747
5.8651  0.687477
5.94104  -0.230232
6.01699  -0.277413
6.09293  -0.292674
6.16888  0.439769
6.24482  -0.177647
6.32077  0.432624
6.39671  0.672078
6.47266  1.93108
6.5486  2.26158
6.62455  3.90692
6.70049  8.48668
6.77644  20.3753
6.85238  30.4767
6.92833  49.7871
7.00427  112.534
7.08021  175.74
7.15616  118.931
7.2321  53.0418
7.30805  25.8544
7.38399  14.5152
7.45994  9.22623
7.53588  5.77788
7.61183  3.62678
7.68777  3.44563
7.76372  1.6877
7.83966  0.23403
7.91561  1.0055
7.99155  0.600341
8.0675  -0.387827
8.14344  -0.242324
8.21939  0.0249278
8.29533  0.32885
8.37128  0.485464
8.44722  -0.138062
8.52317  1.08659
8.59911  0.862269
8.67506  0.105993
8.751  0.481516
8.82694  -0.678952
8.90289  -0.170741
8.97883  1.90087
9.05478  6.51584
9.13072  19.1742
9.20667  71.9367
9.28261  266.771
9.35856  437.753
9.4345  359.424
9.51045  418.549
9.58639  708.616
9.66234  876.579
9.73828  730.513
9.81423  411.649
9.89017  203.193
9.96612  88.5977
10.0421  34.6017
10.118  13.073
10.194  5.78665
10.2699  1.92893
10.3458  -1.89951
10.4218  -3.10498
10.4977  2.48617
10.5737  14.291
10.6496  25.74
10.7256  32.7274
10.8015  40.0638
10.8775  53.463
10.9534  69.8047
11.0293  90.0883
11.1053  118.163
11.1812  111.401
11.2572  86.8559
11.3331  60.2999
11.4091  31.7415
11.485  12.7355
11.561  4.88435
11.6369  0.92115
11.7128  -1.1129
11.7888  -1.45475
11.8647  -0.18483
11.9407  11.3837
12.0166  38.039
12.0926  100.501
12.1685  203.83
12.2445  245.123
12.3204  139.292
12.3963  67.5152
12.4723  52.7745
12.5482  60.3393
12.6242  80.6339
12.7001  90.6
12.7761  83.1038
12.852  78.0334
12.928  81.2646
13.0039  87.62
13.0799  94.7249
13.1558  105.677
13.2317  112.529
13.3077  105.082
13.3836  82.3993
13.4596  57.2014
13.5355  35.0443
13.6115  19.7768
13.6874  7.39097
13.7634  0.106723
13.8393  -2.37905
13.9152  -0.790476
13.9912  4.6972
14.0671  11.7434
14.1431  15.6254
14.219  13.0312
14.295  7.39518
14.3709  4.14417
14.4469  0.727051
14.5228  -0.450126
14.5987  0.0362876
14.6747  0.228034
14.7506  -0.637374
14.8266  -0.152432
14.9025  0.0765166
14.9785  0.276664
15.0544  0.166744
15.1304  0.348671
15.2063  1.61707
15.2823  -0.130363
15.3582  0.159124
15.4341  0.0915533
15.5101  -0.4428
15.586  0.345145
15.662  0.240165
15.7379  0.766256
15.8139  2.41054
15.8898  4.10845
15.9658  9.0203
16.0417  14.8736
16.1176  20.8436
16.1936  26.1138
16.2695  29.9117
16.3455  30.7276
16.4214  31.0609
16.4974  35.3668
16.5733  44.8187
16.6493  45.421
16.7252  35.582
16.8011  21.3322
16.8771  10.43
16.953  5.87751
17.029  4.56396
17.1049  5.51752
17.1809  3.28288
17.2568  0.17441
17.3328  -1.695
17.4087  -1.00373
17.4846  -0.527684
17.5606  0.611205
17.6365  3.51997
17.7125  7.03966
17.7884  14.505
17.8644  30.533
17.9403  53.9583
18.0163  82.0156
18.0922  113.401
18.1682  129.631
18.2441  107.585
18.32  72.2278
18.396  41.0148
18.4719  25.0952
18.5479  22.31
18.6238  25.0336
18.6998  26.578
18.7757  23.5074
18.8517  18.9581
18.9276  16.2293
19.0035  19.1765
19.0795  27.2435
19.1554  40.8186
19.2314  49.6093
19.3073  42.9845
19.3833  26.2875
19.4592  11.9637
19.5352  3.49389
19.6111  0.0579343
19.687  0.905958
19.763  7.67593
19.8389  22.6365
19.9149  41.0997
19.9908  46.5485
20.0668  37.5221
20.1427  35.8307
20.2187  46.1293
20.2946  57.6358
20.3706  52.9882
20.4465  38.4435
20.5224  26.4806
20.5984  19.962
20.6743  16.1583
20.7503  14.3786
20.8262  14.4404
20.9022  14.6075
20.9781  15.0389
21.0541  15.0757
21.13  15.6464
21.2059  15.4877
21.2819  15.7841
21.3578  15.165
21.4338  11.5421
21.5097  8.66031
21.5857  4.96067
21.6616  1.60056
21.7376  -0.434313
21.8135  -0.490616
21.8894  -0.320278
21.9654  2.76983
22.0413  6.67185
22.1173  10.4524
22.1932  8.54366
22.2692  3.0643
22.3451  0.501062
22.4211  0.12543
22.497  -0.279417
22.5729  -0.0434084
22.6489  0.737471
22.7248  0.941361
22.8008  0.651084
22.8767  0.00865643
22.9527  -0.155153
23.0286  0.389945
23.1046  -0.161978
23.1805  0.243097
23.2565  0.306575
23.3324  0.0667435
23.4083  -0.023358
23.4843  -0.0403965
23.5602  0.046683
23.6362  0.197256
23.7121  0.505159
23.7881  -0.029959
23.864  0.527958
23.94  -0.0432603
24.0159  -0.0595302
24.0918  0.235158
24.1678  -0.291133
24.2437  -0.204136