File: data/processed/Run1_XRD/14_ReMoB2_66p0GPa_595psi_P1_C4_D1w_102.dat
2.82731  0.488369
2.90325  0.408801
2.9792  0.909116
3.05514  0.344836
3.13109  1.72474
3.20703  1.58632
3.28298  3.00663
3.35892  3.71892
3.43487  8.5207
3.51081  22.6302
3.58676  17.1998
3.6627  4.50864
3.73864  2.42137
3.81459  1.56669
3.89053  1.23816
3.96648  0.464523
4.04242  0.032406
4.11837  1.80683
4.19431  0.646082
4.27026  1.24534
4.3462  0.495815
4.42215  0.346607
4.49809  0.00733088
4.57404  0.895512
4.64998  0.633236
4.72593  1.28985
4.80187  1.42183
4.87782  0.95
4.95376  0.186591
5.02971  0.144164
5.10565  0.826442
5.1816  0.629092
5.25754  0.960542
5.33349  0.590395
5.40943  0.72121
5.48537  0.547033
5.56132  0.371009
5.63726  0.298552
5.71321  0.880655
5.78915  1.00923
5.8651  0.572182
5.94104  0.615639
6.01699  1.89024
6.09293  1.60208
6.16888  0.701972
6.24482  0.149664
6.32077  1.20509
6.39671  5.97246
6.47266  10.3354
6.5486  3.77954
6.62455  2.71798
6.70049  5.60463
6.77644  12.7452
6.85238  23.4534
6.92833  35.0815
7.00427  88.1293
7.08021  160.322
7.15616  110.028
7.2321  40.2112
7.30805  13.5673
7.38399  7.23324
7.45994  4.20744
7.53588  1.68416
7.61183  0.850502
7.68777  1.02603
7.76372  0.745402
7.83966  -0.09024
7.91561  0.738453
7.99155  0.67089
8.0675  1.16638
8.14344  0.183337
8.21939  0.127219
8.29533  0.337608
8.37128  0.206079
8.44722  0.526041
8.52317  1.01674
8.59911  0.374039
8.67506  -0.449037
8.751  0.0514762
8.82694  -0.620978
8.90289  0.01727
8.97883  0.924109
9.05478  4.06382
9.13072  10.7313
9.20667  34.8406
9.28261  208.117
9.35856  606.151
9.4345  518.92
9.51045  426.542
9.58639  727.03
9.66234  971.455
9.73828  816.819
9.81423  493.809
9.89017  266.571
9.96612  136.124
10.0421  57.2282
10.118  22.844
10.194  7.03147
10.2699  0.977855
10.3458  -2.73361
10.4218  -0.122251
10.4977  2.15006
10.5737  2.53971
10.6496  6.69758
10.7256  12.3347
10.8015  22.3693
10.8775  38.9687
10.9534  56.843
11.0293  75.9966
11.1053  97.0411
11.1812  95.8337
11.2572  81.6616
11.3331  65.7041
11.4091  48.9525
11.485  31.7605
11.561  17.2632
11.6369  7.45918
11.7128  3.22615
11.7888  -0.773973
11.8647  -0.847682
11.9407  2.31821
12.0166  22.4611
12.0926  124.461
12.1685  343.391
12.2445  414.708
12.3204  245.055
12.3963  118.845
12.4723  62.4305
12.5482  45.572
12.6242  46.1482
12.7001  55.3557
12.7761  68.5522
12.852  83.7036
12.928  99.7741
13.0039  102.969
13.0799  99.7346
13.1558  97.0325
13.2317  88.9869
13.3077  79.1779
13.3836  67.5787
13.4596  53.1979
13.5355  36.2407
13.6115  22.164
13.6874  10.2658
13.7634  -0.124025
13.8393  -2.32117
13.9152  0.236181
13.9912  6.42127
14.0671  12.4778
14.1431  16.5668
14.219  14.5786
14.295  9.48605
14.3709  4.43983
14.4469  2.08691
14.5228  0.41331
14.5987  -0.308949
14.6747  -1.10448
14.7506  -0.2641
14.8266  -0.986685
14.9025  0.422859
14.9785  0.0283373
15.0544  -0.031916
15.1304  0.913265
15.2063  0.936737
15.2823  1.33131
15.3582  0.438984
15.4341  0.495066
15.5101  -0.285356
15.586  0.433889
15.662  -0.0835209
15.7379  0.037298
15.8139  1.16506
15.8898  1.94307
15.9658  2.88355
16.0417  4.07111
16.1176  7.23033
16.1936  9.56339
16.2695  13.6363
16.3455  17.0628
16.4214  20.8054
16.4974  26.3775
16.5733  34.7288
16.6493  51.8497
16.7252  60.1786
16.8011  52.738
16.8771  29.8514
16.953  12.8357
17.029  7.64705
17.1049  6.40081
17.1809  4.39603
17.2568  0.49586
17.3328  -1.01918
17.4087  -0.353052
17.4846  -0.303437
17.5606  -0.100534
17.6365  1.72966
17.7125  4.51214
17.7884  6.88724
17.8644  11.2897
17.9403  21.5721
18.0163  36.7121
18.0922  63.5286
18.1682  103.249
18.2441  132.989
18.32  106.071
18.396  62.826
18.4719  39.2288
18.5479  26.4105
18.6238  15.8424
18.6998  10.6829
18.7757  7.87043
18.8517  8.54282
18.9276  8.82229
19.0035  11.6127
19.0795  15.81
19.1554  21.3499
19.2314  27.2582
19.3073  29.7621
19.3833  23.8227
19.4592  14.4993
19.5352  6.62614
19.6111  1.80532
19.687  1.35402
19.763  5.49971
19.8389  17.3764
19.9149  38.6193
19.9908  49.1277
20.0668  40.8743
20.1427  32.3971
20.2187  29.5191
20.2946  29.0882
20.3706  26.5672
20.4465  22.9891
20.5224  18.4036
20.5984  16.9212
20.6743  14.7229
20.7503  14.0171
20.8262  13.2876
20.9022  13.473
20.9781  13.7658
21.0541  13.9614
21.13  14.4614
21.2059  14.2597
21.2819  12.609
21.3578  9.93417
21.4338  7.03268
21.5097  5.20817
21.5857  3.83198
21.6616  1.34384
21.7376  0.327136
21.8135  -0.582774
21.8894  -0.974967
21.9654  1.26746
22.0413  3.73309
22.1173  7.12083
22.1932  8.92592
22.2692  7.006
22.3451  3.68679
22.4211  1.7756
22.497  0.173003
22.5729  -0.255859
22.6489  0.342478
22.7248  0.246221
22.8008  0.479658
22.8767  0.0339612
22.9527  0.348074
23.0286  -0.0333136
23.1046  -0.0569269
23.1805  0.266679
23.2565  0.394023
23.3324  0.178055
23.4083  0.398352
23.4843  -0.100595
23.5602  0.234552
23.6362  -0.0550551
23.7121  0.48293
23.7881  -0.0585788
23.864  0.214969
23.94  0.519647
24.0159  0.096664
24.0918  0.0183814
24.1678  -0.0150813
24.2437  0.0498751