File: data/processed/Run1_XRD/15_ReMoB2_71p0GPa_620psi_P1_C4_D1w_108.dat
2.82731  0.306275
2.90325  1.83999
2.9792  0.669512
3.05514  0.180613
3.13109  1.95167
3.20703  0.992241
3.28298  1.32817
3.35892  2.9762
3.43487  5.88806
3.51081  29.1143
3.58676  36.9506
3.6627  5.32915
3.73864  1.90411
3.81459  0.869791
3.89053  0.97453
3.96648  1.65077
4.04242  1.8126
4.11837  0.389713
4.19431  0.75237
4.27026  1.99157
4.3462  1.59339
4.42215  -0.0631634
4.49809  0.607449
4.57404  0.535006
4.64998  0.529316
4.72593  0.00121361
4.80187  1.06636
4.87782  0.750222
4.95376  1.6936
5.02971  1.21004
5.10565  0.214323
5.1816  0.497112
5.25754  1.00919
5.33349  0.420669
5.40943  1.1685
5.48537  0.352353
5.56132  0.476011
5.63726  -0.172593
5.71321  0.99421
5.78915  1.35047
5.8651  1.32258
5.94104  0.433502
6.01699  2.73814
6.09293  1.66398
6.16888  0.0432037
6.24482  0.185065
6.32077  0.787133
6.39671  1.20468
6.47266  5.64292
6.5486  2.61268
6.62455  2.74032
6.70049  6.09339
6.77644  30.3616
6.85238  72.453
6.92833  51.7424
7.00427  78.5927
7.08021  232.446
7.15616  199.377
7.2321  63.6892
7.30805  19.0179
7.38399  8.44723
7.45994  4.02817
7.53588  1.60715
7.61183  1.12696
7.68777  0.0308801
7.76372  0.777873
7.83966  0.712724
7.91561  1.05043
7.99155  0.596157
8.0675  0.386184
8.14344  0.107683
8.21939  0.848251
8.29533  1.15086
8.37128  -0.126911
8.44722  1.04067
8.52317  1.19405
8.59911  0.821862
8.67506  -0.101447
8.751  -0.0880615
8.82694  -0.965932
8.90289  -0.862418
8.97883  1.63179
9.05478  5.40702
9.13072  10.5662
9.20667  25.6547
9.28261  138.026
9.35856  558.256
9.4345  803.519
9.51045  598.812
9.58639  634.528
9.66234  860.543
9.73828  869.153
9.81423  568.471
9.89017  307.563
9.96612  166.639
10.0421  95.0972
10.118  43.3614
10.194  15.2503
10.2699  1.9985
10.3458  -1.98181
10.4218  0.0777796
10.4977  -0.36003
10.5737  0.293349
10.6496  7.68469
10.7256  13.0446
10.8015  18.2085
10.8775  30.1146
10.9534  47.9163
11.0293  63.9824
11.1053  83.2308
11.1812  95.224
11.2572  90.3182
11.3331  77.7945
11.4091  63.4807
11.485  43.6649
11.561  25.3406
11.6369  14.2141
11.7128  10.8227
11.7888  9.7946
11.8647  3.47671
11.9407  -1.06488
12.0166  0.174043
12.0926  14.8494
12.1685  69.0328
12.2445  202.141
12.3204  398.984
12.3963  312.83
12.4723  141.16
12.5482  93.9345
12.6242  74.5875
12.7001  67.4712
12.7761  72.1074
12.852  83.6031
12.928  98.1289
13.0039  104.959
13.0799  104.619
13.1558  106.096
13.2317  105.844
13.3077  100.275
13.3836  84.2049
13.4596  64.611
13.5355  45.4435
13.6115  30.2691
13.6874  17.4756
13.7634  6.78037
13.8393  -1.53294
13.9152  -2.38535
13.9912  2.08543
14.0671  8.37583
14.1431  17.1601
14.219  23.5676
14.295  18.4015
14.3709  10.8866
14.4469  4.51715
14.5228  0.899904
14.5987  -0.583751
14.6747  -0.44988
14.7506  -0.125904
14.8266  -0.56192
14.9025  -0.705333
14.9785  0.401882
15.0544  0.020025
15.1304  1.39983
15.2063  3.31269
15.2823  3.11872
15.3582  1.99168
15.4341  0.603602
15.5101  0.157602
15.586  -0.181628
15.662  0.132169
15.7379  0.154974
15.8139  1.02311
15.8898  1.60654
15.9658  2.08304
16.0417  4.24665
16.1176  6.1178
16.1936  7.84412
16.2695  10.4215
16.3455  12.5771
16.4214  13.0296
16.4974  14.2309
16.5733  14.1942
16.6493  21.3907
16.7252  37.124
16.8011  65.1052
16.8771  74.0369
16.953  33.918
17.029  13.6693
17.1049  7.44775
17.1809  4.82487
17.2568  1.67771
17.3328  -0.386235
17.4087  -0.251097
17.4846  -0.794862
17.5606  0.224597
17.6365  0.72775
17.7125  2.70794
17.7884  4.69925
17.8644  6.71496
17.9403  8.28835
18.0163  16.1638
18.0922  31.9992
18.1682  58.9481
18.2441  92.0433
18.32  97.671
18.396  69.7827
18.4719  41.2137
18.5479  27.8621
18.6238  21.2356
18.6998  14.9462
18.7757  9.91272
18.8517  8.29633
18.9276  8.15441
19.0035  9.86784
19.0795  12.2448
19.1554  14.9749
19.2314  20.9522
19.3073  30.1851
19.3833  28.6275
19.4592  17.5124
19.5352  7.68555
19.6111  2.36359
19.687  0.404438
19.763  3.09592
19.8389  10.2606
19.9149  24.6025
19.9908  44.6003
20.0668  53.0948
20.1427  48.9438
20.2187  40.8469
20.2946  35.2273
20.3706  33.429
20.4465  32.4058
20.5224  31.2907
20.5984  27.0431
20.6743  20.9957
20.7503  16.4994
20.8262  13.8562
20.9022  12.5441
20.9781  11.9785
21.0541  10.3697
21.13  9.53382
21.2059  7.79376
21.2819  6.98822
21.3578  6.06518
21.4338  4.54483
21.5097  3.29111
21.5857  1.46363
21.6616  1.17137
21.7376  0.508676
21.8135  -0.0936799
21.8894  -0.876421
21.9654  0.0297129
22.0413  2.06269
22.1173  8.35557
22.1932  15.3892
22.2692  13.0625
22.3451  5.64818
22.4211  1.53163
22.497  0.420455
22.5729  -0.234719
22.6489  -0.208003
22.7248  0.354923
22.8008  0.269326
22.8767  0.47487
22.9527  0.0433886
23.0286  0.479927
23.1046  -0.223376
23.1805  0.0253161
23.2565  0.203781
23.3324  0.0557869
23.4083  0.0421532
23.4843  0.204835
23.5602  0.383229
23.6362  -0.141134
23.7121  0.55584
23.7881  0.330965
23.864  0.356376
23.94  0.428943
24.0159  -0.056369
24.0918  0.148228
24.1678  0.0572771
24.2437  0.102014