File: data/processed/Run1_XRD/16_ReMoB2_74p0GPa_645psi_P1_C4_D1w_114.dat
2.82731  0.248826
2.90325  0.498632
2.9792  0.337855
3.05514  1.75659
3.13109  0.814121
3.20703  1.138
3.28298  1.46541
3.35892  3.36203
3.43487  4.71381
3.51081  24.6149
3.58676  42.078
3.6627  7.96699
3.73864  1.96696
3.81459  1.70029
3.89053  1.30601
3.96648  1.38548
4.04242  1.01881
4.11837  1.11997
4.19431  0.400808
4.27026  0.259636
4.3462  0.128906
4.42215  0.486075
4.49809  -0.0572871
4.57404  1.41944
4.64998  0.702603
4.72593  0.740501
4.80187  0.344245
4.87782  0.643875
4.95376  0.969363
5.02971  1.05061
5.10565  1.02
5.1816  0.272217
5.25754  1.42251
5.33349  1.50846
5.40943  0.620715
5.48537  -0.112869
5.56132  0.853306
5.63726  1.3675
5.71321  0.055819
5.78915  0.603132
5.8651  1.6614
5.94104  0.302893
6.01699  1.60306
6.09293  0.152625
6.16888  0.499444
6.24482  -0.455006
6.32077  1.33684
6.39671  1.19446
6.47266  2.96143
6.5486  3.78889
6.62455  2.56644
6.70049  5.9559
6.77644  17.8887
6.85238  42.5354
6.92833  46.3935
7.00427  63.8595
7.08021  200.02
7.15616  238.767
7.2321  93.6383
7.30805  27.2041
7.38399  11.7521
7.45994  5.82449
7.53588  4.15227
7.61183  1.29079
7.68777  0.83947
7.76372  0.759418
7.83966  0.125814
7.91561  0.478944
7.99155  0.00182506
8.0675  0.403652
8.14344  -0.199033
8.21939  0.0930278
8.29533  0.196956
8.37128  0.439627
8.44722  0.897982
8.52317  0.886651
8.59911  0.146527
8.67506  -0.023483
8.751  -0.816965
8.82694  -0.958968
8.90289  -0.48909
8.97883  1.96208
9.05478  6.89651
9.13072  13.1019
9.20667  29.1104
9.28261  129.131
9.35856  542.094
9.4345  829.81
9.51045  655.173
9.58639  556.165
9.66234  793.433
9.73828  893.046
9.81423  614.391
9.89017  314.757
9.96612  164.482
10.0421  90.7761
10.118  41.1477
10.194  13.5874
10.2699  1.87318
10.3458  -0.503155
10.4218  -1.83164
10.4977  -1.77891
10.5737  -1.11298
10.6496  4.78983
10.7256  9.85892
10.8015  10.7578
10.8775  14.8296
10.9534  22.7715
11.0293  34.0053
11.1053  49.039
11.1812  61.3008
11.2572  61.4462
11.3331  52.5686
11.4091  39.8919
11.485  27.3275
11.561  19.382
11.6369  10.4406
11.7128  5.63971
11.7888  3.47111
11.8647  2.128
11.9407  0.496303
12.0166  4.44503
12.0926  26.6938
12.1685  113.718
12.2445  321.142
12.3204  518.454
12.3963  419.439
12.4723  218.647
12.5482  97.0153
12.6242  59.761
12.7001  46.2151
12.7761  42.668
12.852  44.5033
12.928  50.6932
13.0039  54.7976
13.0799  55.1091
13.1558  56.3312
13.2317  59.9594
13.3077  62.2312
13.3836  56.6626
13.4596  40.6253
13.5355  25.3453
13.6115  13.2353
13.6874  6.78699
13.7634  0.982438
13.8393  -2.07517
13.9152  -2.08424
13.9912  0.314286
14.0671  6.17574
14.1431  13.8507
14.219  21.2778
14.295  21.7932
14.3709  17.6866
14.4469  9.42639
14.5228  3.87948
14.5987  1.68211
14.6747  -0.391098
14.7506  0.272786
14.8266  -0.705061
14.9025  -0.925884
14.9785  -0.282286
15.0544  0.396777
15.1304  -0.144288
15.2063  1.36343
15.2823  0.821693
15.3582  1.30275
15.4341  0.381108
15.5101  0.0935863
15.586  0.0754964
15.662  0.0396345
15.7379  0.798553
15.8139  0.335734
15.8898  0.915183
15.9658  2.77209
16.0417  4.20941
16.1176  7.14819
16.1936  10.3438
16.2695  13.2172
16.3455  15.9183
16.4214  16.4963
16.4974  16.4888
16.5733  14.5411
16.6493  15.026
16.7252  22.0879
16.8011  36.7207
16.8771  48.3366
16.953  31.993
17.029  13.2243
17.1049  7.08145
17.1809  4.82084
17.2568  2.96461
17.3328  0.929028
17.4087  -0.737235
17.4846  -0.951075
17.5606  -0.0731936
17.6365  0.140024
17.7125  0.982827
17.7884  3.75435
17.8644  6.66669
17.9403  8.71031
18.0163  16.8471
18.0922  32.4137
18.1682  53.5114
18.2441  82.0649
18.32  111.388
18.396  99.1516
18.4719  62.0159
18.5479  40.7035
18.6238  31.6447
18.6998  25.7963
18.7757  14.7606
18.8517  9.47023
18.9276  7.73017
19.0035  8.81254
19.0795  10.0051
19.1554  10.8162
19.2314  12.0908
19.3073  14.8176
19.3833  18.337
19.4592  16.2463
19.5352  8.45949
19.6111  3.20987
19.687  0.592331
19.763  1.43553
19.8389  5.71582
19.9149  13.6569
19.9908  28.1015
20.0668  39.8558
20.1427  43.7481
20.2187  37.6862
20.2946  31.333
20.3706  29.5684
20.4465  28.5326
20.5224  29.0559
20.5984  29.0094
20.6743  26.2188
20.7503  22.3699
20.8262  19.4159
20.9022  17.4329
20.9781  14.6046
21.0541  11.3781
21.13  9.80276
21.2059  8.008
21.2819  5.59752
21.3578  4.34992
21.4338  2.91675
21.5097  1.57729
21.5857  0.965863
21.6616  0.59868
21.7376  0.585347
21.8135  0.125232
21.8894  -1.134
21.9654  -0.50624
22.0413  1.26775
22.1173  4.87745
22.1932  13.3209
22.2692  16.2562
22.3451  8.76443
22.4211  2.81753
22.497  1.63013
22.5729  1.27923
22.6489  -0.050814
22.7248  -0.127881
22.8008  0.887011
22.8767  0.594628
22.9527  0.292836
23.0286  -0.051869
23.1046  0.0763551
23.1805  0.205484
23.2565  0.0252557
23.3324  0.15224
23.4083  0.591361
23.4843  0.205561
23.5602  0.384731
23.6362  0.0941254
23.7121  0.163354
23.7881  0.162171
23.864  0.0147682
23.94  0.320813
24.0159  0.0562252
24.0918  -0.22635
24.1678  0.201071
24.2437  0.247863