File: data/processed/Run1_XRD/17_ReMoB2_78p0GPa_670psi_P1_C4_D1w_120.dat
2.82731  0.255493
2.90325  0.535867
2.9792  2.08097
3.05514  0.165671
3.13109  2.46309
3.20703  1.18455
3.28298  0.685888
3.35892  2.13602
3.43487  5.61587
3.51081  18.3662
3.58676  38.7735
3.6627  8.45961
3.73864  2.0387
3.81459  1.21748
3.89053  1.303
3.96648  0.404348
4.04242  0.882974
4.11837  0.563339
4.19431  0.99712
4.27026  0.856638
4.3462  0.51498
4.42215  1.1635
4.49809  -0.199659
4.57404  0.399583
4.64998  0.416508
4.72593  0.819704
4.80187  0.520944
4.87782  0.807041
4.95376  0.419715
5.02971  0.113697
5.10565  0.393222
5.1816  0.227156
5.25754  0.766248
5.33349  1.5449
5.40943  0.298939
5.48537  0.739233
5.56132  0.517123
5.63726  0.372469
5.71321  1.27962
5.78915  1.41345
5.8651  1.75672
5.94104  1.15936
6.01699  2.18282
6.09293  2.22786
6.16888  -0.459594
6.24482  0.170693
6.32077  1.11679
6.39671  1.70094
6.47266  6.14254
6.5486  5.97011
6.62455  2.22347
6.70049  3.45141
6.77644  11.3162
6.85238  37.4744
6.92833  49.6266
7.00427  51.7816
7.08021  143.046
7.15616  208.64
7.2321  107.237
7.30805  30.7483
7.38399  11.8566
7.45994  6.51077
7.53588  3.40669
7.61183  1.00715
7.68777  1.30578
7.76372  0.75904
7.83966  -0.369164
7.91561  -0.11665
7.99155  0.9472
8.0675  1.50251
8.14344  1.17519
8.21939  0.406618
8.29533  0.0157592
8.37128  1.01504
8.44722  0.629049
8.52317  0.555592
8.59911  0.892758
8.67506  0.162498
8.751  -0.676199
8.82694  -1.40317
8.90289  -0.67785
8.97883  1.90083
9.05478  5.69721
9.13072  9.25311
9.20667  20.1693
9.28261  89.971
9.35856  531.283
9.4345  1071.49
9.51045  835.082
9.58639  538.308
9.66234  652.184
9.73828  769.045
9.81423  605.802
9.89017  351.599
9.96612  189.525
10.0421  114.751
10.118  62.114
10.194  25.2257
10.2699  6.28644
10.3458  -1.27239
10.4218  -2.89679
10.4977  -0.395526
10.5737  1.13843
10.6496  3.44097
10.7256  8.48387
10.8015  10.1759
10.8775  15.1162
10.9534  23.067
11.0293  34.562
11.1053  48.7847
11.1812  60.2528
11.2572  59.1824
11.3331  49.3537
11.4091  34.8567
11.485  19.7246
11.561  9.74193
11.6369  2.94577
11.7128  0.802645
11.7888  0.989503
11.8647  1.61506
11.9407  -0.530197
12.0166  4.1567
12.0926  21.4847
12.1685  100.974
12.2445  277.994
12.3204  447.918
12.3963  432.452
12.4723  255.139
12.5482  128.243
12.6242  80.5755
12.7001  58.3119
12.7761  50.3005
12.852  49.4573
12.928  54.1902
13.0039  61.2827
13.0799  61.9249
13.1558  60.6523
13.2317  61.1039
13.3077  59.527
13.3836  52.1251
13.4596  39.8285
13.5355  25.0652
13.6115  14.2574
13.6874  6.65115
13.7634  0.529692
13.8393  -1.5955
13.9152  -2.46638
13.9912  1.9179
14.0671  6.92369
14.1431  12.7499
14.219  18.4197
14.295  19.8018
14.3709  14.6057
14.4469  8.96983
14.5228  3.30396
14.5987  1.02987
14.6747  -0.12409
14.7506  -0.897471
14.8266  -0.718523
14.9025  -0.217531
14.9785  -0.326684
15.0544  0.592747
15.1304  -0.24004
15.2063  2.12841
15.2823  2.96319
15.3582  2.93012
15.4341  1.81672
15.5101  0.815102
15.586  0.823113
15.662  -0.0068915
15.7379  -0.135374
15.8139  0.379625
15.8898  0.0882534
15.9658  1.84282
16.0417  2.89444
16.1176  3.95639
16.1936  6.70267
16.2695  10.5639
16.3455  14.0696
16.4214  15.9654
16.4974  16.5583
16.5733  16.2503
16.6493  16.7048
16.7252  24.1267
16.8011  40.3194
16.8771  60.58
16.953  56.564
17.029  26.7372
17.1049  11.4969
17.1809  5.76096
17.2568  2.39001
17.3328  0.465209
17.4087  0.0810408
17.4846  -0.714892
17.5606  -0.797421
17.6365  -0.582735
17.7125  0.850347
17.7884  2.06336
17.8644  4.79954
17.9403  6.64796
18.0163  11.6419
18.0922  23.4274
18.1682  43.2408
18.2441  65.8285
18.32  101.854
18.396  118.091
18.4719  87.7769
18.5479  54.9586
18.6238  40.8065
18.6998  31.1093
18.7757  18.9775
18.8517  10.6764
18.9276  7.67091
19.0035  7.13137
19.0795  8.1102
19.1554  9.22039
19.2314  10.3699
19.3073  13.0625
19.3833  15.8098
19.4592  15.4562
19.5352  10.7244
19.6111  4.46512
19.687  1.59221
19.763  0.721359
19.8389  2.20711
19.9149  7.03745
19.9908  19.3887
20.0668  33.5404
20.1427  37.3408
20.2187  34.6988
20.2946  29.7697
20.3706  28.0182
20.4465  27.7654
20.5224  27.888
20.5984  28.0589
20.6743  26.1676
20.7503  23.209
20.8262  21.0094
20.9022  17.8529
20.9781  14.9005
21.0541  13.0372
21.13  10.8075
21.2059  8.50209
21.2819  6.25787
21.3578  3.62374
21.4338  2.31044
21.5097  1.38666
21.5857  1.01095
21.6616  0.53036
21.7376  0.597131
21.8135  0.702731
21.8894  -0.597333
21.9654  -0.208918
22.0413  -0.21547
22.1173  0.532934
22.1932  2.91844
22.2692  7.39423
22.3451  6.49067
22.4211  2.79597
22.497  0.705173
22.5729  0.626939
22.6489  0.387956
22.7248  -0.119491
22.8008  0.752196
22.8767  0.685213
22.9527  0.0287482
23.0286  0.385798
23.1046  0.416911
23.1805  0.0717964
23.2565  -0.0326095
23.3324  0.0522369
23.4083  0.410178
23.4843  0.770002
23.5602  0.0518498
23.6362  0.38985
23.7121  0.106533
23.7881  0.307024
23.864  0.376752
23.94  0.330958
24.0159  -0.320403
24.0918  0.310576
24.1678  0.120247
24.2437  0.233047