File: data/processed/Run1_XRD/18_ReMoB2_60p0GPa_300psi_release_P1_C4_D1w_126.dat
2.82731  0.0633597
2.90325  0.709676
2.9792  1.81232
3.05514  0.699192
3.13109  1.42807
3.20703  0.643458
3.28298  1.70372
3.35892  4.01218
3.43487  8.42478
3.51081  23.9594
3.58676  17.1695
3.6627  4.02036
3.73864  2.03299
3.81459  1.89506
3.89053  1.18771
3.96648  1.66879
4.04242  0.693494
4.11837  0.205959
4.19431  1.165
4.27026  0.34734
4.3462  0.275733
4.42215  0.0796683
4.49809  0.329764
4.57404  0.734854
4.64998  -0.104491
4.72593  2.0925
4.80187  1.07888
4.87782  0.321847
4.95376  1.03403
5.02971  0.962574
5.10565  1.28366
5.1816  0.451212
5.25754  1.12233
5.33349  0.669503
5.40943  0.162467
5.48537  0.403191
5.56132  -0.157809
5.63726  0.702872
5.71321  0.304578
5.78915  1.61592
5.8651  0.187226
5.94104  0.857143
6.01699  2.66482
6.09293  0.839363
6.16888  0.51828
6.24482  0.424169
6.32077  1.51967
6.39671  9.7224
6.47266  12.7509
6.5486  2.84367
6.62455  2.27681
6.70049  5.12426
6.77644  14.2529
6.85238  22.8274
6.92833  37.5615
7.00427  100.069
7.08021  156.889
7.15616  93.4803
7.2321  35.9748
7.30805  12.3096
7.38399  6.33057
7.45994  3.86647
7.53588  1.45557
7.61183  0.554457
7.68777  0.70223
7.76372  -0.0663643
7.83966  -0.355015
7.91561  1.38925
7.99155  0.66739
8.0675  0.807485
8.14344  -0.0752185
8.21939  0.370626
8.29533  1.03618
8.37128  0.773199
8.44722  0.41393
8.52317  0.628994
8.59911  -0.287098
8.67506  -0.0301698
8.751  -0.674897
8.82694  -0.519398
8.90289  2.71485
8.97883  7.33598
9.05478  19.0485
9.13072  52.9527
9.20667  214.384
9.28261  809.833
9.35856  826.169
9.4345  479.515
9.51045  456.63
9.58639  598.878
9.66234  580.981
9.73828  432.292
9.81423  260.298
9.89017  149.618
9.96612  79.1064
10.0421  35.3415
10.118  11.7965
10.194  3.1325
10.2699  -2.14462
10.3458  -2.73025
10.4218  0.698104
10.4977  1.97165
10.5737  3.92104
10.6496  9.10249
10.7256  11.4597
10.8015  17.3296
10.8775  24.3974
10.9534  32.2569
11.0293  42.1997
11.1053  48.4678
11.1812  42.9223
11.2572  30.0904
11.3331  17.4867
11.4091  4.82376
11.485  -1.66259
11.561  0.658419
11.6369  4.69388
11.7128  6.8707
11.7888  17.4012
11.8647  41.0239
11.9407  106.788
12.0166  358.783
12.0926  794.593
12.1685  568.196
12.2445  346.485
12.3204  244.155
12.3963  125.007
12.4723  58.9973
12.5482  39.1922
12.6242  31.7525
12.7001  29.4157
12.7761  27.4826
12.852  27.6661
12.928  29.7412
13.0039  29.4499
13.0799  28.897
13.1558  28.2173
13.2317  28.4428
13.3077  25.2016
13.3836  17.8333
13.4596  10.5299
13.5355  4.16461
13.6115  0.0247205
13.6874  -1.9633
13.7634  -2.30764
13.8393  0.59703
13.9152  4.91659
13.9912  9.07932
14.0671  13.2058
14.1431  15.4201
14.219  13.195
14.295  7.92174
14.3709  3.89283
14.4469  1.89491
14.5228  -0.0486519
14.5987  -0.0762724
14.6747  -0.511314
14.7506  -0.127346
14.8266  -0.736952
14.9025  0.0105658
14.9785  0.0186088
15.0544  0.654091
15.1304  0.862031
15.2063  1.40934
15.2823  0.39145
15.3582  0.460104
15.4341  -0.157329
15.5101  0.232374
15.586  0.654088
15.662  0.57012
15.7379  0.674068
15.8139  2.14872
15.8898  3.32503
15.9658  8.47902
16.0417  15.7129
16.1176  26.1709
16.1936  37.0766
16.2695  39.4536
16.3455  33.9528
16.4214  26.7581
16.4974  23.9735
16.5733  31.4502
16.6493  40.4326
16.7252  42.2143
16.8011  27.5331
16.8771  12.3213
16.953  6.10236
17.029  4.04627
17.1049  2.2872
17.1809  0.537279
17.2568  -0.573992
17.3328  -1.43053
17.4087  -1.144
17.4846  -0.0370493
17.5606  1.05741
17.6365  3.4973
17.7125  9.18686
17.7884  23.9021
17.8644  53.9758
17.9403  75.7562
18.0163  88.733
18.0922  109.637
18.1682  129.788
18.2441  109.19
18.32  72.9828
18.396  52.0655
18.4719  40.7179
18.5479  28.5763
18.6238  18.2149
18.6998  11.975
18.7757  9.94853
18.8517  8.43707
18.9276  7.69022
19.0035  8.87941
19.0795  11.209
19.1554  11.8238
19.2314  11.8068
19.3073  8.68867
19.3833  5.26341
19.4592  1.74726
19.5352  0.0699344
19.6111  -0.276738
19.687  2.70786
19.763  9.84906
19.8389  19.4932
19.9149  27.4158
19.9908  27.7302
20.0668  31.2739
20.1427  38.3864
20.2187  40.6714
20.2946  35.7616
20.3706  32.4886
20.4465  28.744
20.5224  24.5434
20.5984  21.2666
20.6743  17.4668
20.7503  15.0133
20.8262  13.3325
20.9022  12.6356
20.9781  11.6443
21.0541  11.5858
21.13  10.9819
21.2059  9.17143
21.2819  7.34691
21.3578  5.01601
21.4338  2.58318
21.5097  1.06719
21.5857  0.295331
21.6616  -0.0679965
21.7376  -0.461897
21.8135  -0.436067
21.8894  -0.421669
21.9654  0.347195
22.0413  1.38639
22.1173  1.7138
22.1932  1.38721
22.2692  1.70051
22.3451  3.11555
22.4211  2.90708
22.497  3.06536
22.5729  2.63992
22.6489  1.73129
22.7248  1.18755
22.8008  1.28048
22.8767  1.29293
22.9527  0.323018
23.0286  -0.342304
23.1046  -0.0145783
23.1805  -0.0689345
23.2565  0.0446876
23.3324  0.0325046
23.4083  0.0639966
23.4843  0.204252
23.5602  0.245498
23.6362  0.393622
23.7121  -0.096994
23.7881  0.5418
23.864  0.799077
23.94  0.234829
24.0159  -0.237429
24.0918  0.0505972
24.1678  -0.0336225
24.2437  0.115572