File: data/processed/Run1_XRD/19_ReMoB2_50p0GPa_200psi_release_P1_C4_D1w_132.dat
2.82731  0.45527
2.90325  0.563688
2.9792  0.698865
3.05514  0.49862
3.13109  1.37934
3.20703  0.920029
3.28298  1.62645
3.35892  4.29146
3.43487  12.3183
3.51081  36.3762
3.58676  14.4627
3.6627  3.54721
3.73864  2.43953
3.81459  1.47785
3.89053  1.51502
3.96648  1.62737
4.04242  0.00127613
4.11837  0.475955
4.19431  0.0895119
4.27026  1.0085
4.3462  0.464612
4.42215  0.389368
4.49809  0.0225955
4.57404  0.407598
4.64998  0.826481
4.72593  1.43096
4.80187  1.02306
4.87782  1.41031
4.95376  0.643281
5.02971  -0.113446
5.10565  0.772398
5.1816  0.267904
5.25754  0.673994
5.33349  0.236061
5.40943  1.34089
5.48537  0.316719
5.56132  -0.163866
5.63726  0.789519
5.71321  0.776569
5.78915  1.19402
5.8651  0.515218
5.94104  2.33369
6.01699  4.87664
6.09293  1.51141
6.16888  0.965387
6.24482  -0.0926178
6.32077  1.1207
6.39671  3.6801
6.47266  5.61994
6.5486  2.16608
6.62455  5.84742
6.70049  26.5848
6.77644  51.0515
6.85238  42.6386
6.92833  65.3666
7.00427  192.13
7.08021  202.787
7.15616  76.1927
7.2321  27.5293
7.30805  11.2015
7.38399  5.25246
7.45994  2.70645
7.53588  1.22972
7.61183  0.382461
7.68777  0.0642952
7.76372  0.405874
7.83966  0.28121
7.91561  0.0252836
7.99155  0.552238
8.0675  0.303034
8.14344  -0.135196
8.21939  0.00261118
8.29533  0.61137
8.37128  0.801468
8.44722  0.775723
8.52317  0.326844
8.59911  0.820414
8.67506  0.21297
8.751  -0.665736
8.82694  0.130581
8.90289  1.27484
8.97883  4.62156
9.05478  19.0532
9.13072  82.3744
9.20667  510.928
9.28261  1053.04
9.35856  787.468
9.4345  484.88
9.51045  565.937
9.58639  705.83
9.66234  516.214
9.73828  324.766
9.81423  216.616
9.89017  139.404
9.96612  65.3562
10.0421  21.4296
10.118  5.43967
10.194  -1.13117
10.2699  -2.39525
10.3458  -0.437477
10.4218  -1.00218
10.4977  3.501
10.5737  13.4777
10.6496  19.4537
10.7256  22.4388
10.8015  30.1452
10.8775  37.8456
10.9534  49.3402
11.0293  59.2575
11.1053  65.3347
11.1812  54.0054
11.2572  36.5782
11.3331  20.1732
11.4091  8.02309
11.485  -0.842372
11.561  -0.141177
11.6369  8.37879
11.7128  14.0196
11.7888  27.2098
11.8647  63.7122
11.9407  175.818
12.0166  479.688
12.0926  770.69
12.1685  653.257
12.2445  369.3
12.3204  158.983
12.3963  83.0648
12.4723  55.8836
12.5482  42.1393
12.6242  41.773
12.7001  42.749
12.7761  45.843
12.852  47.4647
12.928  44.7484
13.0039  42.7882
13.0799  44.1538
13.1558  47.2626
13.2317  43.4357
13.3077  33.1501
13.3836  20.7657
13.4596  13.2413
13.5355  6.80262
13.6115  0.607708
13.6874  -2.42817
13.7634  -2.82306
13.8393  -0.819304
13.9152  4.73755
13.9912  13.7261
14.0671  22.7558
14.1431  23.3425
14.219  13.6252
14.295  6.65686
14.3709  2.84524
14.4469  0.628853
14.5228  -0.238528
14.5987  -0.781445
14.6747  -0.770079
14.7506  -0.308304
14.8266  -0.121738
14.9025  0.0925419
14.9785  -0.0844642
15.0544  0.891084
15.1304  1.02546
15.2063  1.55102
15.2823  0.023081
15.3582  0.338879
15.4341  0.714303
15.5101  0.0642193
15.586  1.25415
15.662  0.762425
15.7379  1.85941
15.8139  2.72739
15.8898  5.41929
15.9658  8.41672
16.0417  13.1226
16.1176  15.8821
16.1936  18.0348
16.2695  18.2393
16.3455  18.208
16.4214  21.774
16.4974  34.6297
16.5733  57.812
16.6493  60.4839
16.7252  39.7556
16.8011  24.1385
16.8771  12.822
16.953  6.32717
17.029  1.86021
17.1049  0.857335
17.1809  -0.740957
17.2568  -0.2439
17.3328  -0.911602
17.4087  -0.473767
17.4846  1.31622
17.5606  4.49044
17.6365  11.6206
17.7125  28.6274
17.7884  63.1474
17.8644  109.483
17.9403  124.726
18.0163  123.141
18.0922  131.472
18.1682  103.886
18.2441  63.9043
18.32  43.0543
18.396  30.6443
18.4719  20.0552
18.5479  13.4399
18.6238  8.55064
18.6998  7.11158
18.7757  7.02664
18.8517  9.00368
18.9276  15.3145
19.0035  25.9343
19.0795  32.4578
19.1554  24.3892
19.2314  13.1135
19.3073  5.84168
19.3833  1.74609
19.4592  0.112697
19.5352  0.517297
19.6111  5.67594
19.687  18.5465
19.763  32.0198
19.8389  35.2086
19.9149  33.2886
19.9908  37.4792
20.0668  46.2544
20.1427  45.1871
20.2187  39.2126
20.2946  31.9789
20.3706  25.263
20.4465  19.6629
20.5224  15.1931
20.5984  12.4323
20.6743  10.8454
20.7503  10.3011
20.8262  9.52989
20.9022  10.4771
20.9781  10.2182
21.0541  9.83121
21.13  9.07547
21.2059  7.95118
21.2819  6.6346
21.3578  4.99434
21.4338  2.95948
21.5097  1.42739
21.5857  -0.194443
21.6616  -0.627982
21.7376  -0.676526
21.8135  0.0718439
21.8894  1.61799
21.9654  2.42369
22.0413  1.30203
22.1173  0.0795069
22.1932  2.57288
22.2692  6.31914
22.3451  3.40644
22.4211  4.4945
22.497  5.17644
22.5729  4.20326
22.6489  2.58586
22.7248  1.31181
22.8008  0.276708
22.8767  0.229998
22.9527  -0.0708695
23.0286  -0.112974
23.1046  0.353164
23.1805  0.678606
23.2565  0.130924
23.3324  0.146791
23.4083  0.417546
23.4843  0.283412
23.5602  0.0838959
23.6362  0.375089
23.7121  0.351563
23.7881  0.347328
23.864  0.255343
23.94  0.647975
24.0159  0.0823573
24.0918  -0.128725
24.1678  0.260265
24.2437  0.188208