File: data/processed/Run1_XRD/1_ReMoB2_0pGPa_0psi_Samp_P1_C4_D1w_024.dat
2.82731  0.304086
2.90325  2.20526
2.9792  1.14681
3.05514  2.08482
3.13109  1.80598
3.20703  1.82765
3.28298  2.03703
3.35892  2.46304
3.43487  4.93347
3.51081  2.3166
3.58676  1.87876
3.6627  1.81636
3.73864  1.43167
3.81459  2.65198
3.89053  0.998986
3.96648  1.58211
4.04242  1.5035
4.11837  0.964056
4.19431  1.70459
4.27026  1.22065
4.3462  -0.0768284
4.42215  0.609
4.49809  0.0085347
4.57404  0.626151
4.64998  0.607507
4.72593  0.94516
4.80187  0.950594
4.87782  1.549
4.95376  0.0162602
5.02971  1.61636
5.10565  2.02878
5.1816  1.20004
5.25754  1.46815
5.33349  1.15561
5.40943  0.61653
5.48537  0.974852
5.56132  0.778144
5.63726  1.52006
5.71321  0.656824
5.78915  1.74593
5.8651  1.33832
5.94104  0.906056
6.01699  0.47596
6.09293  -0.127056
6.16888  0.572467
6.24482  0.660799
6.32077  1.66879
6.39671  1.9898
6.47266  3.82866
6.5486  1.11737
6.62455  0.711389
6.70049  2.11327
6.77644  8.64289
6.85238  14.9103
6.92833  2.20993
7.00427  0.961044
7.08021  0.575056
7.15616  0.0597838
7.2321  0.611431
7.30805  -0.110904
7.38399  0.752111
7.45994  0.541155
7.53588  1.07304
7.61183  1.1205
7.68777  0.666428
7.76372  0.681293
7.83966  0.950309
7.91561  0.609671
7.99155  1.12502
8.0675  1.30185
8.14344  -0.0316292
8.21939  0.731852
8.29533  0.101582
8.37128  0.182098
8.44722  1.04905
8.52317  1.04444
8.59911  0.281806
8.67506  0.0429638
8.751  0.923753
8.82694  0.451981
8.90289  0.903492
8.97883  2.78019
9.05478  12.1124
9.13072  216.438
9.20667  368.82
9.28261  84.5805
9.35856  241.842
9.4345  236.182
9.51045  19.6654
9.58639  3.93242
9.66234  1.55063
9.73828  0.303164
9.81423  1.07878
9.89017  7.60653
9.96612  27.8711
10.0421  2.96136
10.118  90.9602
10.194  88.4944
10.2699  11.3139
10.3458  0.804966
10.4218  0.850015
10.4977  0.677509
10.5737  3.82455
10.6496  42.0463
10.7256  274.619
10.8015  133.008
10.8775  17.5962
10.9534  5.52218
11.0293  4.60245
11.1053  3.84484
11.1812  4.04383
11.2572  5.67657
11.3331  3.58288
11.4091  1.16882
11.485  0.16299
11.561  -0.0147951
11.6369  0.657349
11.7128  1.05445
11.7888  5.90372
11.8647  2.75355
11.9407  2.88454
12.0166  7.95544
12.0926  45.7233
12.1685  53.1207
12.2445  10.9243
12.3204  5.32506
12.3963  4.47548
12.4723  4.09057
12.5482  3.81846
12.6242  4.36738
12.7001  6.40307
12.7761  16.7945
12.852  154.279
12.928  81.5857
13.0039  11.9618
13.0799  2.09171
13.1558  0.420284
13.2317  0.759607
13.3077  1.13531
13.3836  0.813316
13.4596  0.0833746
13.5355  1.72159
13.6115  32.0898
13.6874  6.45088
13.7634  1.515
13.8393  0.631735
13.9152  0.0235243
13.9912  0.458671
14.0671  0.49319
14.1431  0.716222
14.219  0.673005
14.295  0.89983
14.3709  1.30484
14.4469  0.401509
14.5228  1.39775
14.5987  1.54783
14.6747  1.42667
14.7506  0.174203
14.8266  0.45621
14.9025  -0.0543718
14.9785  0.850239
15.0544  0.561959
15.1304  0.865219
15.2063  2.21509
15.2823  2.70921
15.3582  10.04
15.4341  237.805
15.5101  257.376
15.586  63.3535
15.662  10.5947
15.7379  13.446
15.8139  27.8089
15.8898  11.1681
15.9658  3.21243
16.0417  1.07995
16.1176  2.31726
16.1936  2.94756
16.2695  0.850962
16.3455  0.920836
16.4214  0.843652
16.4974  0.521728
16.5733  -0.114513
16.6493  0.0398139
16.7252  -0.131395
16.8011  0.148484
16.8771  0.206311
16.953  0.927654
17.029  9.2988
17.1049  6.82523
17.1809  32.3835
17.2568  59.6335
17.3328  26.5792
17.4087  22.7151
17.4846  13.1977
17.5606  3.51516
17.6365  1.55923
17.7125  0.714935
17.7884  0.545767
17.8644  0.847917
17.9403  0.964813
18.0163  1.43356
18.0922  2.55511
18.1682  3.71275
18.2441  15.3834
18.32  151.198
18.396  144.6
18.4719  200.443
18.5479  33.0626
18.6238  8.70492
18.6998  5.67378
18.7757  46.4166
18.8517  159.141
18.9276  69.4147
19.0035  19.4807
19.0795  5.83969
19.1554  14.6169
19.2314  14.09
19.3073  4.57491
19.3833  4.43659
19.4592  4.55173
19.5352  4.69076
19.6111  5.53688
19.687  5.70251
19.763  7.80724
19.8389  8.10254
19.9149  20.0005
19.9908  20.3893
20.0668  12.5636
20.1427  10.0195
20.2187  11.1064
20.2946  11.5558
20.3706  51.5074
20.4465  85.5892
20.5224  75.908
20.5984  21.6222
20.6743  13.7848
20.7503  10.8354
20.8262  18.2003
20.9022  123.162
20.9781  159.35
21.0541  72.933
21.13  10.4869
21.2059  3.97944
21.2819  1.34305
21.3578  0.887782
21.4338  2.42395
21.5097  1.24182
21.5857  0.00796006
21.6616  -0.075273
21.7376  0.287696
21.8135  0.473618
21.8894  0.0149878
21.9654  0.0348969
22.0413  0.0559032
22.1173  -0.0817931
22.1932  -0.145881
22.2692  -0.0794253
22.3451  0.255681
22.4211  0.279468
22.497  0.0581162
22.5729  0.523998
22.6489  -0.199464
22.7248  0.255263
22.8008  0.175333
22.8767  0.424656
22.9527  0.428986
23.0286  0.261633
23.1046  0.21465
23.1805  -0.0764392
23.2565  0.163246
23.3324  0.0789846
23.4083  0.129943
23.4843  0.419026
23.5602  0.316381
23.6362  0.27826
23.7121  0.48351
23.7881  0.502431
23.864  0.282254
23.94  0.0601438
24.0159  0.105315
24.0918  -0.00666524
24.1678  0.0974375
24.2437  0.0391198