File: data/processed/Run1_XRD/20_ReMoB2_40p0GPa_100psi_release_P1_C4_D1w_138.dat
2.82731  0.173521
2.90325  1.33242
2.9792  2.66266
3.05514  1.73148
3.13109  1.62035
3.20703  1.54888
3.28298  2.67391
3.35892  5.12179
3.43487  13.7505
3.51081  24.8138
3.58676  8.30758
3.6627  3.49696
3.73864  2.06122
3.81459  2.26016
3.89053  0.83526
3.96648  1.48797
4.04242  1.42754
4.11837  0.679239
4.19431  1.32244
4.27026  0.851864
4.3462  0.319362
4.42215  0.0615957
4.49809  0.976662
4.57404  0.729664
4.64998  0.154408
4.72593  0.960009
4.80187  0.373529
4.87782  0.683675
4.95376  0.119616
5.02971  1.30602
5.10565  0.184878
5.1816  0.0258968
5.25754  0.261814
5.33349  1.11235
5.40943  0.925541
5.48537  0.237862
5.56132  0.141203
5.63726  1.44073
5.71321  1.57309
5.78915  1.54228
5.8651  0.564245
5.94104  1.65826
6.01699  0.948941
6.09293  0.592369
6.16888  0.399092
6.24482  1.29496
6.32077  2.65544
6.39671  4.84405
6.47266  4.02617
6.5486  3.98204
6.62455  12.4048
6.70049  29.6299
6.77644  32.5581
6.85238  35.8102
6.92833  91.9875
7.00427  151.638
7.08021  88.0302
7.15616  33.3816
7.2321  11.9447
7.30805  4.565
7.38399  1.84781
7.45994  1.47519
7.53588  0.170044
7.61183  0.592628
7.68777  0.206166
7.76372  0.739799
7.83966  0.0992832
7.91561  0.680146
7.99155  0.477166
8.0675  0.0972823
8.14344  0.177346
8.21939  -0.181859
8.29533  -0.427227
8.37128  -0.595365
8.44722  -0.677458
8.52317  -0.119435
8.59911  0.369286
8.67506  2.14633
8.751  4.36712
8.82694  8.536
8.90289  16.6641
8.97883  32.1283
9.05478  80.9176
9.13072  280.433
9.20667  578.368
9.28261  496.924
9.35856  436.104
9.4345  631.358
9.51045  740.036
9.58639  581.039
9.66234  340.714
9.73828  196.699
9.81423  127.139
9.89017  64.6392
9.96612  22.0047
10.0421  3.62095
10.118  -0.994148
10.194  -2.5671
10.2699  -0.800362
10.3458  -0.341044
10.4218  0.467546
10.4977  5.79447
10.5737  8.63361
10.6496  14.3057
10.7256  22.3079
10.8015  32.9935
10.8775  43.0835
10.9534  53.1134
11.0293  56.9319
11.1053  47.8609
11.1812  33.6768
11.2572  20.1271
11.3331  7.19541
11.4091  0.272686
11.485  -1.37122
11.561  12.0288
11.6369  35.1514
11.7128  67.3633
11.7888  136.903
11.8647  272.443
11.9407  402.487
12.0166  375.446
12.0926  264.501
12.1685  166.916
12.2445  97.9002
12.3204  61.0031
12.3963  39.4545
12.4723  28.4742
12.5482  25.1959
12.6242  27.3527
12.7001  32.8055
12.7761  36.8906
12.852  37.6863
12.928  39.524
13.0039  42.6993
13.0799  42.7987
13.1558  38.2048
13.2317  30.4446
13.3077  20.9207
13.3836  11.1228
13.4596  4.41205
13.5355  0.103818
13.6115  -2.70333
13.6874  -1.18404
13.7634  1.62511
13.8393  6.58536
13.9152  11.6439
13.9912  15.5509
14.0671  13.7348
14.1431  9.5705
14.219  4.46776
14.295  1.80076
14.3709  0.0678133
14.4469  -0.501016
14.5228  -0.378225
14.5987  -0.982221
14.6747  -0.0569324
14.7506  -0.0025378
14.8266  0.310555
14.9025  0.532546
14.9785  1.22459
15.0544  1.93696
15.1304  -0.00221804
15.2063  1.09794
15.2823  0.792388
15.3582  0.501433
15.4341  0.633523
15.5101  0.371129
15.586  1.27445
15.662  2.39626
15.7379  4.83245
15.8139  8.62152
15.8898  12.801
15.9658  16.9457
16.0417  19.0472
16.1176  18.1865
16.1936  17.0445
16.2695  22.5693
16.3455  44.0024
16.4214  74.4573
16.4974  68.2177
16.5733  41.2343
16.6493  20.6831
16.7252  9.77182
16.8011  5.49651
16.8771  3.07231
16.953  1.38384
17.029  -0.180602
17.1049  -1.01873
17.1809  -0.959059
17.2568  -0.218421
17.3328  0.958249
17.4087  3.45808
17.4846  10.8977
17.5606  23.8417
17.6365  45.3611
17.7125  68.9678
17.7884  87.2926
17.8644  106.571
17.9403  114.677
18.0163  97.6609
18.0922  65.5887
18.1682  46.2396
18.2441  39.8728
18.32  27.6737
18.396  13.7233
18.4719  7.14918
18.5479  4.81839
18.6238  4.63712
18.6998  7.31162
18.7757  12.435
18.8517  16.6478
18.9276  18.1504
19.0035  16.8471
19.0795  10.9282
19.1554  4.46557
19.2314  1.05911
19.3073  0.829361
19.3833  1.90872
19.4592  6.14143
19.5352  16.9417
19.6111  29.894
19.687  35.9279
19.763  33.3926
19.8389  30.952
19.9149  31.6148
19.9908  29.8602
20.0668  25.3088
20.1427  22.4845
20.2187  19.3873
20.2946  15.5836
20.3706  13.3336
20.4465  11.2414
20.5224  10.2913
20.5984  10.1678
20.6743  10.6631
20.7503  11.4511
20.8262  12.4216
20.9022  14.1557
20.9781  14.9664
21.0541  14.3453
21.13  12.1146
21.2059  9.54926
21.2819  5.60805
21.3578  2.42464
21.4338  0.988538
21.5097  -0.676997
21.5857  -0.703525
21.6616  0.0510964
21.7376  1.72089
21.8135  2.03082
21.8894  0.694587
21.9654  1.30457
22.0413  3.2998
22.1173  4.74913
22.1932  3.86502
22.2692  2.35232
22.3451  2.26315
22.4211  0.829032
22.497  0.434151
22.5729  0.393738
22.6489  0.278203
22.7248  -0.0661439
22.8008  -0.1884
22.8767  0.0653812
22.9527  -0.0135255
23.0286  0.0948996
23.1046  0.111663
23.1805  0.561664
23.2565  0.168347
23.3324  -0.0470297
23.4083  0.131283
23.4843  -0.0601767
23.5602  0.0647958
23.6362  0.0108542
23.7121  0.127804
23.7881  -0.000625492
23.864  0.0668634
23.94  0.269701
24.0159  -0.0104248
24.0918  0.161365
24.1678  -0.218508
24.2437  -0.148769