File: data/processed/Run1_XRD/2_ReMoB2_5pGPa_230psi_P1_C4_D1w_029.dat
2.82731  0.354493
2.90325  0.447709
2.9792  0.0269376
3.05514  0.3361
3.13109  2.03852
3.20703  1.30641
3.28298  1.77529
3.35892  9.56794
3.43487  24.0823
3.51081  4.418
3.58676  0.686931
3.6627  0.359797
3.73864  1.54122
3.81459  0.783062
3.89053  0.705564
3.96648  1.49243
4.04242  -0.0114768
4.11837  0.963791
4.19431  0.983419
4.27026  0.265819
4.3462  0.484063
4.42215  0.330503
4.49809  0.768489
4.57404  0.821725
4.64998  0.98495
4.72593  1.56762
4.80187  -0.373014
4.87782  1.3098
4.95376  1.62593
5.02971  0.286703
5.10565  0.176424
5.1816  1.18853
5.25754  1.14108
5.33349  0.891158
5.40943  0.0586066
5.48537  0.399523
5.56132  0.119673
5.63726  0.651076
5.71321  0.430018
5.78915  1.37106
5.8651  0.133212
5.94104  0.819739
6.01699  0.912857
6.09293  0.131582
6.16888  0.620747
6.24482  0.880818
6.32077  0.925264
6.39671  1.54644
6.47266  5.42737
6.5486  3.47519
6.62455  1.77077
6.70049  5.90167
6.77644  68.844
6.85238  195.633
6.92833  53.4421
7.00427  10.1097
7.08021  3.7909
7.15616  2.12778
7.2321  1.06182
7.30805  0.328475
7.38399  1.31345
7.45994  1.66532
7.53588  1.16604
7.61183  0.901106
7.68777  1.24235
7.76372  1.08766
7.83966  -0.0376105
7.91561  0.542807
7.99155  0.260003
8.0675  0.633899
8.14344  0.721203
8.21939  0.230127
8.29533  1.19097
8.37128  0.96674
8.44722  0.359463
8.52317  0.64137
8.59911  0.655798
8.67506  0.0253923
8.751  -0.480955
8.82694  0.189647
8.90289  0.550314
8.97883  4.72064
9.05478  41.5834
9.13072  466.351
9.20667  1545.61
9.28261  1290.11
9.35856  902.022
9.4345  580.586
9.51045  214.782
9.58639  82.0191
9.66234  26.9567
9.73828  8.10564
9.81423  0.491357
9.89017  0.054878
9.96612  4.39544
10.0421  2.67952
10.118  4.66713
10.194  36.948
10.2699  68.3563
10.3458  35.7264
10.4218  20.3408
10.4977  18.2469
10.5737  24.4008
10.6496  44.4426
10.7256  137.286
10.8015  323.668
10.8775  314.542
10.9534  90.7889
11.0293  23.5815
11.1053  8.71181
11.1812  4.96198
11.2572  5.75305
11.3331  7.61363
11.4091  4.37032
11.485  0.806779
11.561  -0.313395
11.6369  -0.897023
11.7128  -0.368521
11.7888  2.4477
11.8647  2.13618
11.9407  2.43214
12.0166  12.4147
12.0926  52.5987
12.1685  86.4792
12.2445  55.1981
12.3204  33.4302
12.3963  21.858
12.4723  15.7305
12.5482  16.2984
12.6242  22.2
12.7001  29.1327
12.7761  45.1132
12.852  90.9356
12.928  125.05
13.0039  98.7318
13.0799  55.225
13.1558  22.525
13.2317  9.13505
13.3077  4.23704
13.3836  0.905831
13.4596  0.00969286
13.5355  0.177927
13.6115  4.36636
13.6874  14.6176
13.7634  13.002
13.8393  5.72272
13.9152  0.478483
13.9912  0.21406
14.0671  0.304299
14.1431  0.134987
14.219  0.177404
14.295  -0.326913
14.3709  1.17606
14.4469  0.692692
14.5228  0.622325
14.5987  0.00163671
14.6747  0.345707
14.7506  0.554522
14.8266  -0.15185
14.9025  0.00512533
14.9785  -0.28465
15.0544  0.865019
15.1304  1.44352
15.2063  2.39556
15.2823  3.96215
15.3582  8.53737
15.4341  23.7548
15.5101  66.3468
15.586  94.8213
15.662  66.9724
15.7379  36.0491
15.8139  30.6334
15.8898  29.6772
15.9658  22.5978
16.0417  15.3325
16.1176  10.9752
16.1936  7.00969
16.2695  4.09829
16.3455  2.29882
16.4214  1.11501
16.4974  0.643694
16.5733  0.585839
16.6493  0.153625
16.7252  -0.220336
16.8011  -0.288662
16.8771  -0.493974
16.953  -0.250594
17.029  1.91478
17.1049  9.45637
17.1809  26.3206
17.2568  52.1958
17.3328  89.3442
17.4087  99.1282
17.4846  147.881
17.5606  150.048
17.6365  107.821
17.7125  57.5221
17.7884  22.1703
17.8644  10.1512
17.9403  3.8615
18.0163  0.98822
18.0922  0.40774
18.1682  4.8202
18.2441  22.4651
18.32  55.4191
18.396  81.2028
18.4719  85.7451
18.5479  74.8517
18.6238  66.3335
18.6998  36.6539
18.7757  19.0332
18.8517  22.7735
18.9276  43.1097
19.0035  55.2504
19.0795  60.9335
19.1554  49.4947
19.2314  41.5431
19.3073  28.2649
19.3833  16.552
19.4592  9.30174
19.5352  3.59481
19.6111  1.00528
19.687  0.579999
19.763  1.63069
19.8389  2.93593
19.9149  5.30174
19.9908  9.5813
20.0668  13.2272
20.1427  16.3824
20.2187  21.2983
20.2946  26.4018
20.3706  37.7502
20.4465  60.9181
20.5224  69.3746
20.5984  58.2987
20.6743  52.007
20.7503  37.2937
20.8262  23.9072
20.9022  20.4639
20.9781  29.7853
21.0541  52.6852
21.13  72.0164
21.2059  43.5274
21.2819  13.7359
21.3578  4.20321
21.4338  0.83606
21.5097  -0.390365
21.5857  -0.355399
21.6616  0.182756
21.7376  0.405098
21.8135  0.882149
21.8894  0.0548698
21.9654  -0.181135
22.0413  0.032094
22.1173  -0.419028
22.1932  -0.172387
22.2692  0.107671
22.3451  0.350435
22.4211  0.439364
22.497  0.416086
22.5729  0.13586
22.6489  -0.326924
22.7248  -0.26962
22.8008  0.259769
22.8767  0.615916
22.9527  0.523835
23.0286  0.133407
23.1046  0.12528
23.1805  0.0799155
23.2565  -0.0747711
23.3324  0.237812
23.4083  0.305804
23.4843  -0.000689815
23.5602  0.337412
23.6362  0.198422
23.7121  0.183706
23.7881  0.59622
23.864  0.654458
23.94  -0.048669
24.0159  0.0869276
24.0918  0.169528
24.1678  -0.0103769
24.2437  -0.0254312