File: data/processed/Run1_XRD/3_ReMoB2_10pGPa_260psi_P1_C4_D1w_035.dat
2.82731  0.417695
2.90325  0.423694
2.9792  0.877006
3.05514  1.26893
3.13109  2.00155
3.20703  1.24543
3.28298  2.28173
3.35892  3.79534
3.43487  10.2693
3.51081  4.35579
3.58676  1.30362
3.6627  0.89644
3.73864  1.66985
3.81459  1.11932
3.89053  1.39244
3.96648  1.73793
4.04242  0.144146
4.11837  0.705808
4.19431  0.995541
4.27026  1.12673
4.3462  0.867817
4.42215  0.803668
4.49809  0.0644499
4.57404  0.659728
4.64998  0.197714
4.72593  1.4238
4.80187  0.995819
4.87782  0.0900187
4.95376  0.491812
5.02971  0.436495
5.10565  0.868633
5.1816  -0.185718
5.25754  0.91597
5.33349  1.95989
5.40943  1.63269
5.48537  0.18749
5.56132  1.05521
5.63726  1.50459
5.71321  1.47786
5.78915  0.0509724
5.8651  1.13004
5.94104  1.08352
6.01699  0.522731
6.09293  0.873275
6.16888  0.670954
6.24482  0.675126
6.32077  0.982347
6.39671  0.384762
6.47266  3.98626
6.5486  3.44551
6.62455  2.08422
6.70049  2.94326
6.77644  13.866
6.85238  32.6836
6.92833  28.0896
7.00427  11.5428
7.08021  2.87752
7.15616  1.75103
7.2321  0.612683
7.30805  -0.0521074
7.38399  0.705352
7.45994  0.510544
7.53588  0.782422
7.61183  0.346953
7.68777  0.608634
7.76372  1.08149
7.83966  -0.0532737
7.91561  0.353097
7.99155  0.551264
8.0675  0.357066
8.14344  0.126754
8.21939  0.3769
8.29533  0.903008
8.37128  0.287823
8.44722  0.358193
8.52317  0.877391
8.59911  0.0249699
8.67506  0.176633
8.751  -0.148544
8.82694  -0.12619
8.90289  -0.045732
8.97883  2.16872
9.05478  17.0539
9.13072  129.091
9.20667  552.966
9.28261  1123.92
9.35856  1397.09
9.4345  716.131
9.51045  264.569
9.58639  151.333
9.66234  46.0576
9.73828  11.4575
9.81423  0.934522
9.89017  0.140944
9.96612  5.9616
10.0421  11.8064
10.118  28.5352
10.194  33.8136
10.2699  83.4184
10.3458  70.3244
10.4218  64.6139
10.4977  37.3401
10.5737  24.6215
10.6496  20.217
10.7256  27.6781
10.8015  49.8085
10.8775  75.0903
10.9534  43.7183
11.0293  13.3299
11.1053  3.52884
11.1812  1.82328
11.2572  1.14525
11.3331  4.8958
11.4091  5.58551
11.485  0.807503
11.561  -0.316117
11.6369  -0.460915
11.7128  -0.0857318
11.7888  0.581027
11.8647  0.746728
11.9407  3.6195
12.0166  7.49739
12.0926  25.3094
12.1685  57.294
12.2445  51.3898
12.3204  30.1768
12.3963  19.6557
12.4723  14.1838
12.5482  14.7434
12.6242  14.9382
12.7001  10.9866
12.7761  13.208
12.852  22.4912
12.928  34.318
13.0039  26.1415
13.0799  14.1028
13.1558  7.03748
13.2317  4.12906
13.3077  1.75627
13.3836  0.84791
13.4596  -0.322434
13.5355  0.77834
13.6115  1.95778
13.6874  3.3316
13.7634  4.05685
13.8393  3.65852
13.9152  2.40455
13.9912  0.754108
14.0671  0.502872
14.1431  0.112959
14.219  0.162684
14.295  -0.0246439
14.3709  0.70125
14.4469  0.85603
14.5228  0.363869
14.5987  0.455109
14.6747  0.742175
14.7506  0.427741
14.8266  0.701661
14.9025  -0.98586
14.9785  -0.192772
15.0544  0.719809
15.1304  1.28451
15.2063  3.11244
15.2823  5.64166
15.3582  9.64882
15.4341  13.135
15.5101  23.6983
15.586  61.0462
15.662  129.471
15.7379  67.2249
15.8139  37.2665
15.8898  48.5912
15.9658  32.7628
16.0417  17.9401
16.1176  11.9831
16.1936  9.04699
16.2695  7.63627
16.3455  4.99471
16.4214  2.87317
16.4974  1.78003
16.5733  0.68878
16.6493  0.614489
16.7252  0.0994309
16.8011  -0.249732
16.8771  -0.17091
16.953  0.179345
17.029  0.696681
17.1049  3.07908
17.1809  9.01573
17.2568  21.4565
17.3328  37.6404
17.4087  50.9618
17.4846  61.5918
17.5606  62.8285
17.6365  51.6067
17.7125  33.8992
17.7884  20.9106
17.8644  10.8873
17.9403  3.69955
18.0163  1.04957
18.0922  -0.048626
18.1682  1.28462
18.2441  7.34171
18.32  24.4662
18.396  41.5928
18.4719  79.5679
18.5479  42.3656
18.6238  26.4443
18.6998  18.4015
18.7757  7.77688
18.8517  4.30017
18.9276  10.0492
19.0035  28.1555
19.0795  65.6846
19.1554  76.9365
19.2314  59.0397
19.3073  26.6571
19.3833  26.4538
19.4592  44.1127
19.5352  72.4662
19.6111  119.364
19.687  46.8203
19.763  3.74729
19.8389  3.68355
19.9149  5.10695
19.9908  8.65706
20.0668  15.7295
20.1427  27.9451
20.2187  36.1947
20.2946  52.635
20.3706  64.2732
20.4465  66.6491
20.5224  62.5182
20.5984  49.2922
20.6743  40.9603
20.7503  37.0759
20.8262  37.7354
20.9022  38.2947
20.9781  23.0929
21.0541  20.4512
21.13  41.4139
21.2059  39.7978
21.2819  35.0323
21.3578  26.9056
21.4338  17.8133
21.5097  0.238629
21.5857  -0.783303
21.6616  -0.23603
21.7376  0.566674
21.8135  0.627485
21.8894  0.251619
21.9654  0.260805
22.0413  -0.13769
22.1173  0.0546597
22.1932  -0.265246
22.2692  0.0457066
22.3451  0.329867
22.4211  0.279888
22.497  -0.036283
22.5729  0.298598
22.6489  0.236151
22.7248  -0.1025
22.8008  -0.024709
22.8767  -0.20947
22.9527  0.183141
23.0286  0.324379
23.1046  0.305748
23.1805  0.121064
23.2565  -0.0099483
23.3324  0.0321712
23.4083  0.309554
23.4843  0.417897
23.5602  0.0937332
23.6362  0.0367272
23.7121  0.361943
23.7881  0.148275
23.864  0.0340075
23.94  0.265729
24.0159  0.0601541
24.0918  0.290793
24.1678  -0.0210991
24.2437  -0.0600464