File: data/processed/Run1_XRD/4_ReMoB2_15pGPa_295psi_P1_C4_D1w_041.dat
2.82731  0.655526
2.90325  0.282692
2.9792  1.35515
3.05514  0.365191
3.13109  1.69776
3.20703  1.54642
3.28298  3.24159
3.35892  6.86678
3.43487  26.9596
3.51081  15.6964
3.58676  4.09924
3.6627  2.09885
3.73864  0.801386
3.81459  0.635215
3.89053  0.372009
3.96648  0.958526
4.04242  0.41466
4.11837  1.08216
4.19431  1.068
4.27026  0.465821
4.3462  0.129679
4.42215  0.0763159
4.49809  0.405519
4.57404  0.754997
4.64998  0.69596
4.72593  0.807334
4.80187  0.57035
4.87782  1.0759
4.95376  1.01466
5.02971  0.476425
5.10565  1.01732
5.1816  0.227482
5.25754  1.6099
5.33349  1.61286
5.40943  0.629292
5.48537  0.19614
5.56132  1.79295
5.63726  0.928225
5.71321  1.32773
5.78915  0.576937
5.8651  1.16294
5.94104  0.771844
6.01699  1.04454
6.09293  -0.134346
6.16888  1.54132
6.24482  0.444006
6.32077  0.72889
6.39671  0.364504
6.47266  3.78224
6.5486  12.1647
6.62455  10.0178
6.70049  7.25947
6.77644  29.2041
6.85238  95.4903
6.92833  108.555
7.00427  54.4435
7.08021  18.8056
7.15616  5.8518
7.2321  1.10982
7.30805  0.250991
7.38399  0.289599
7.45994  1.4194
7.53588  2.11678
7.61183  1.76135
7.68777  0.813589
7.76372  1.10581
7.83966  0.159117
7.91561  0.551297
7.99155  0.806671
8.0675  0.464609
8.14344  0.579606
8.21939  0.0139179
8.29533  0.475467
8.37128  -0.0737595
8.44722  1.20757
8.52317  1.0153
8.59911  -0.114688
8.67506  -0.0239351
8.751  0.566133
8.82694  -0.135021
8.90289  0.190877
8.97883  2.7279
9.05478  14.1924
9.13072  77.3969
9.20667  306.396
9.28261  784.75
9.35856  1218.54
9.4345  775.922
9.51045  422.335
9.58639  220.548
9.66234  90.2772
9.73828  31.4572
9.81423  7.97551
9.89017  -0.0884105
9.96612  1.98124
10.0421  5.09826
10.118  1.05775
10.194  5.53402
10.2699  29.1868
10.3458  53.0993
10.4218  40.1722
10.4977  25.0949
10.5737  23.3973
10.6496  35.4097
10.7256  70.1757
10.8015  140.612
10.8775  191.159
10.9534  161.215
11.0293  66.738
11.1053  26.6061
11.1812  9.72291
11.2572  6.01088
11.3331  6.85939
11.4091  9.13418
11.485  4.05831
11.561  0.0707167
11.6369  -0.888044
11.7128  -1.56173
11.7888  -0.960131
11.8647  0.725155
11.9407  1.52726
12.0166  3.36556
12.0926  11.5076
12.1685  28.6642
12.2445  52.9944
12.3204  72.0503
12.3963  64.2891
12.4723  42.3254
12.5482  26.0744
12.6242  25.3966
12.7001  33.0289
12.7761  43.0209
12.852  56.4171
12.928  83.058
13.0039  128.66
13.0799  166.164
13.1558  117.902
13.2317  59.4911
13.3077  25.9301
13.3836  9.61013
13.4596  2.2225
13.5355  0.327959
13.6115  1.03902
13.6874  9.12621
13.7634  17.2795
13.8393  18.3229
13.9152  12.449
13.9912  6.11257
14.0671  3.13028
14.1431  1.08761
14.219  -0.569063
14.295  -0.548377
14.3709  0.0421105
14.4469  0.479145
14.5228  0.204017
14.5987  0.164018
14.6747  0.224257
14.7506  0.220735
14.8266  -0.0307449
14.9025  -0.489462
14.9785  0.586892
15.0544  1.01437
15.1304  1.00853
15.2063  1.85649
15.2823  1.24886
15.3582  3.84299
15.4341  8.25329
15.5101  16.5312
15.586  34.5651
15.662  61.7093
15.7379  71.8542
15.8139  55.768
15.8898  37.767
15.9658  28.7345
16.0417  26.0602
16.1176  25.0416
16.1936  19.8766
16.2695  12.8767
16.3455  7.89609
16.4214  4.54984
16.4974  2.78153
16.5733  1.73658
16.6493  1.80353
16.7252  -0.136868
16.8011  -0.283604
16.8771  -0.970231
16.953  -0.850214
17.029  -0.502518
17.1049  0.933698
17.1809  6.63387
17.2568  19.8705
17.3328  43.3781
17.4087  74.0668
17.4846  107.337
17.5606  140.578
17.6365  169.355
17.7125  145.891
17.7884  95.1768
17.8644  56.2605
17.9403  29.9348
18.0163  15.1395
18.0922  7.95935
18.1682  6.28656
18.2441  9.71059
18.32  20.169
18.396  40.7281
18.4719  69.8
18.5479  103.677
18.6238  109.711
18.6998  87.2442
18.7757  60.2766
18.8517  36.6027
18.9276  18.7928
19.0035  12.1977
19.0795  12.9072
19.1554  15.4842
19.2314  19.2233
19.3073  23.2271
19.3833  21.3878
19.4592  15.5977
19.5352  11.8449
19.6111  7.05799
19.687  2.91976
19.763  0.780185
19.8389  0.204205
19.9149  1.22567
19.9908  3.92521
20.0668  6.22934
20.1427  8.70026
20.2187  11.203
20.2946  12.841
20.3706  15.3993
20.4465  18.8784
20.5224  22.8909
20.5984  28.4745
20.6743  30.0501
20.7503  27.7905
20.8262  24.5963
20.9022  20.5154
20.9781  16.505
21.0541  15.1462
21.13  19.0756
21.2059  24.6276
21.2819  26.1279
21.3578  17.6003
21.4338  8.85188
21.5097  3.66
21.5857  0.607915
21.6616  0.0029038
21.7376  0.165064
21.8135  0.138359
21.8894  -0.438192
21.9654  -0.1964
22.0413  0.0820614
22.1173  -0.00237698
22.1932  0.155592
22.2692  0.230919
22.3451  0.230707
22.4211  0.0556067
22.497  -0.0610468
22.5729  -0.134321
22.6489  -0.218468
22.7248  0.0155377
22.8008  0.328169
22.8767  0.315964
22.9527  0.240839
23.0286  0.187464
23.1046  0.256742
23.1805  -0.000776045
23.2565  0.170362
23.3324  -0.110886
23.4083  0.204117
23.4843  0.356018
23.5602  0.0127261
23.6362  0.205974
23.7121  0.138842
23.7881  0.484554
23.864  0.32947
23.94  0.505132
24.0159  0.20544
24.0918  -0.0123268
24.1678  0.0911361
24.2437  0.135771