File: data/processed/Run1_XRD/5_ReMoB2_20pGPa_325psi_P1_C4_D1w_047.dat
2.82731  0.408169
2.90325  0.742615
2.9792  1.05649
3.05514  0.174796
3.13109  1.14675
3.20703  2.01408
3.28298  2.58706
3.35892  4.9443
3.43487  22.0342
3.51081  10.629
3.58676  2.03514
3.6627  2.29197
3.73864  0.010521
3.81459  0.758924
3.89053  1.0859
3.96648  1.68543
4.04242  0.615691
4.11837  0.81151
4.19431  0.634653
4.27026  0.728075
4.3462  -0.0873238
4.42215  -0.0160275
4.49809  0.311624
4.57404  -0.00624682
4.64998  0.414815
4.72593  0.773166
4.80187  1.06295
4.87782  0.658599
4.95376  0.0443907
5.02971  1.535
5.10565  1.21872
5.1816  1.04608
5.25754  0.798216
5.33349  0.584858
5.40943  1.54307
5.48537  -0.168982
5.56132  1.40015
5.63726  1.2122
5.71321  1.25862
5.78915  1.00847
5.8651  1.23323
5.94104  0.750084
6.01699  0.373748
6.09293  -0.16784
6.16888  0.521657
6.24482  0.862664
6.32077  0.73337
6.39671  0.73538
6.47266  2.41236
6.5486  17.8789
6.62455  10.0069
6.70049  4.9331
6.77644  13.7366
6.85238  80.954
6.92833  113.572
7.00427  37.6534
7.08021  9.17249
7.15616  2.6239
7.2321  0.715083
7.30805  0.724166
7.38399  0.372939
7.45994  0.530121
7.53588  0.293869
7.61183  1.06075
7.68777  1.34844
7.76372  0.951694
7.83966  0.225011
7.91561  0.350202
7.99155  0.628855
8.0675  0.261703
8.14344  0.467128
8.21939  -0.0788658
8.29533  0.718974
8.37128  0.0750606
8.44722  0.302148
8.52317  0.602957
8.59911  0.219319
8.67506  0.34656
8.751  0.0532783
8.82694  -0.283809
8.90289  -0.24585
8.97883  0.375983
9.05478  4.50968
9.13072  19.2158
9.20667  107.91
9.28261  653.286
9.35856  2270.67
9.4345  1961.2
9.51045  1115.84
9.58639  493.164
9.66234  141.606
9.73828  42.2077
9.81423  12.9866
9.89017  2.07777
9.96612  0.122982
10.0421  4.24894
10.118  5.61865
10.194  6.65361
10.2699  18.5816
10.3458  124.16
10.4218  168.04
10.4977  73.6767
10.5737  54.6578
10.6496  45.8233
10.7256  40.8626
10.8015  44.4084
10.8775  50.0368
10.9534  42.9665
11.0293  24.9951
11.1053  11.6126
11.1812  4.89358
11.2572  1.73747
11.3331  1.45882
11.4091  4.18854
11.485  3.33955
11.561  0.0991127
11.6369  0.0398866
11.7128  -0.981364
11.7888  -0.369347
11.8647  -0.114716
11.9407  0.478021
12.0166  1.89083
12.0926  4.18967
12.1685  9.12652
12.2445  25.2423
12.3204  48.0672
12.3963  59.755
12.4723  48.8884
12.5482  35.0211
12.6242  29.5529
12.7001  25.7716
12.7761  23.288
12.852  21.8609
12.928  21.0593
13.0039  21.4116
13.0799  21.0738
13.1558  19.1838
13.2317  14.5145
13.3077  8.57458
13.3836  3.07204
13.4596  0.36178
13.5355  0.243797
13.6115  1.65219
13.6874  4.41499
13.7634  10.0005
13.8393  14.5083
13.9152  14.1442
13.9912  9.72615
14.0671  5.78298
14.1431  3.30149
14.219  1.70568
14.295  0.684645
14.3709  1.24665
14.4469  0.12121
14.5228  0.122631
14.5987  -0.273747
14.6747  0.141902
14.7506  -0.388177
14.8266  -0.156371
14.9025  0.299642
14.9785  -0.193594
15.0544  0.153663
15.1304  1.32128
15.2063  1.78942
15.2823  2.87759
15.3582  5.69894
15.4341  7.51816
15.5101  7.852
15.586  7.46078
15.662  9.24692
15.7379  15.21
15.8139  32.4785
15.8898  60.1933
15.9658  50.6891
16.0417  28.5483
16.1176  24.2751
16.1936  21.8767
16.2695  18.2061
16.3455  11.7765
16.4214  9.13222
16.4974  5.87306
16.5733  3.47036
16.6493  0.800585
16.7252  0.284358
16.8011  -0.000828651
16.8771  -0.155329
16.953  -0.521233
17.029  -0.839788
17.1049  -0.126004
17.1809  1.85255
17.2568  4.28544
17.3328  12.3967
17.4087  59.9003
17.4846  355.387
17.5606  333.436
17.6365  168.204
17.7125  155.037
17.7884  77.9591
17.8644  39.3845
17.9403  21.8398
18.0163  10.8904
18.0922  5.77532
18.1682  3.27213
18.2441  2.60725
18.32  3.4585
18.396  6.76871
18.4719  19.7867
18.5479  61.4749
18.6238  165.021
18.6998  177.607
18.7757  114.37
18.8517  58.6019
18.9276  23.5058
19.0035  7.18969
19.0795  1.82269
19.1554  3.64356
19.2314  14.2725
19.3073  37.5194
19.3833  57.2996
19.4592  43.8384
19.5352  33.858
19.6111  24.3125
19.687  13.2969
19.763  6.64203
19.8389  6.09258
19.9149  7.36272
19.9908  9.99855
20.0668  11.2365
20.1427  12.0869
20.2187  13.7442
20.2946  15.8281
20.3706  19.0228
20.4465  24.6709
20.5224  30.2772
20.5984  35.8671
20.6743  44.2754
20.7503  49.0813
20.8262  40.083
20.9022  28.4215
20.9781  17.3534
21.0541  9.90497
21.13  4.56032
21.2059  2.76001
21.2819  3.96018
21.3578  8.43004
21.4338  8.49304
21.5097  9.59963
21.5857  12.6571
21.6616  3.06039
21.7376  0.168782
21.8135  -0.181946
21.8894  -0.544552
21.9654  -0.0868614
22.0413  0.279624
22.1173  0.118983
22.1932  -0.00424216
22.2692  0.187717
22.3451  0.389942
22.4211  -0.0497319
22.497  0.366804
22.5729  -0.198301
22.6489  0.450982
22.7248  0.208977
22.8008  0.372006
22.8767  0.119293
22.9527  0.297828
23.0286  0.445154
23.1046  -0.1156
23.1805  0.0354148
23.2565  0.249733
23.3324  -0.0074321
23.4083  0.218681
23.4843  0.0562362
23.5602  0.135357
23.6362  0.436957
23.7121  0.0552868
23.7881  0.420992
23.864  0.16458
23.94  -0.0117588
24.0159  0.131177
24.0918  -0.165684
24.1678  0.230182
24.2437  0.088074