File: data/processed/Run1_XRD/6_ReMoB2_28pGPa_355psi_P1_C4_D1w_053.dat
2.82731  0.358805
2.90325  0.81651
2.9792  1.09257
3.05514  0.415772
3.13109  1.4154
3.20703  1.34936
3.28298  1.57701
3.35892  3.83798
3.43487  18.5782
3.51081  15.0915
3.58676  10.0999
3.6627  0.656664
3.73864  0.659715
3.81459  0.52882
3.89053  1.20091
3.96648  0.785686
4.04242  0.962473
4.11837  1.2648
4.19431  0.455575
4.27026  0.947878
4.3462  0.639281
4.42215  0.556516
4.49809  0.0288015
4.57404  0.235822
4.64998  -0.154176
4.72593  0.79792
4.80187  1.3846
4.87782  0.845861
4.95376  0.417082
5.02971  0.0190541
5.10565  1.08833
5.1816  0.383228
5.25754  0.847759
5.33349  0.729373
5.40943  0.105826
5.48537  0.335695
5.56132  0.818039
5.63726  -0.0657913
5.71321  0.765593
5.78915  0.395894
5.8651  1.09341
5.94104  1.12397
6.01699  0.0887722
6.09293  0.0458632
6.16888  0.841861
6.24482  0.545549
6.32077  0.200153
6.39671  0.467691
6.47266  2.16118
6.5486  16.3036
6.62455  30.5864
6.70049  11.7483
6.77644  13.1434
6.85238  70.9302
6.92833  125.427
7.00427  46.3282
7.08021  13.1642
7.15616  4.14368
7.2321  0.823931
7.30805  0.493438
7.38399  0.858018
7.45994  0.709338
7.53588  0.158763
7.61183  1.26513
7.68777  1.24947
7.76372  0.384381
7.83966  -0.32176
7.91561  1.07745
7.99155  0.131637
8.0675  0.163718
8.14344  0.607847
8.21939  0.379705
8.29533  0.663517
8.37128  0.259488
8.44722  0.532448
8.52317  0.723625
8.59911  0.73631
8.67506  0.915313
8.751  0.123201
8.82694  -0.524075
8.90289  -0.260672
8.97883  -0.180816
9.05478  2.41599
9.13072  10.9648
9.20667  47.4221
9.28261  232.341
9.35856  620.305
9.4345  883.281
9.51045  1080.13
9.58639  667.506
9.66234  229.854
9.73828  78.2821
9.81423  21.798
9.89017  4.75401
9.96612  2.82876
10.0421  4.24322
10.118  7.63007
10.194  14.5679
10.2699  19.605
10.3458  16.2359
10.4218  32.6457
10.4977  48.3215
10.5737  43.8759
10.6496  35.4524
10.7256  42.0024
10.8015  47.471
10.8775  39.5958
10.9534  28.5972
11.0293  18.0111
11.1053  9.74189
11.1812  3.43411
11.2572  0.212748
11.3331  0.0992687
11.4091  1.60731
11.485  1.92763
11.561  -1.13085
11.6369  -0.646412
11.7128  0.763585
11.7888  2.75071
11.8647  3.90456
11.9407  4.7562
12.0166  3.58986
12.0926  3.84222
12.1685  5.04163
12.2445  13.036
12.3204  36.2115
12.3963  264.715
12.4723  306.914
12.5482  142.563
12.6242  87.2825
12.7001  73.3435
12.7761  67.9812
12.852  58.0409
12.928  42.9825
13.0039  34.7867
13.0799  30.6559
13.1558  32.6841
13.2317  68.3844
13.3077  277.541
13.3836  154.603
13.4596  27.3143
13.5355  3.90326
13.6115  1.03699
13.6874  2.04786
13.7634  7.59056
13.8393  12.1446
13.9152  11.7502
13.9912  7.299
14.0671  3.0353
14.1431  0.294742
14.219  -0.498788
14.295  -0.774592
14.3709  0.495653
14.4469  0.0926024
14.5228  0.637476
14.5987  0.524465
14.6747  0.383498
14.7506  0.0440951
14.8266  0.304404
14.9025  -0.154206
14.9785  0.706085
15.0544  0.183306
15.1304  -0.345842
15.2063  0.649218
15.2823  0.900324
15.3582  4.46218
15.4341  7.47978
15.5101  9.98596
15.586  9.20303
15.662  7.19787
15.7379  8.51147
15.8139  9.93454
15.8898  12.6398
15.9658  15.4205
16.0417  16.3738
16.1176  18.7965
16.1936  21.336
16.2695  19.6678
16.3455  14.3101
16.4214  9.77823
16.4974  8.93812
16.5733  8.25669
16.6493  6.24664
16.7252  2.63629
16.8011  0.690754
16.8771  0.270733
16.953  -0.461169
17.029  -0.136637
17.1049  -0.919833
17.1809  0.0396582
17.2568  1.33398
17.3328  3.38265
17.4087  9.2397
17.4846  24.2884
17.5606  61.4546
17.6365  86.6849
17.7125  94.6029
17.7884  95.3217
17.8644  120.024
17.9403  100.977
18.0163  46.8148
18.0922  18.3153
18.1682  10.1979
18.2441  5.86262
18.32  6.05895
18.396  5.97946
18.4719  8.18858
18.5479  16.958
18.6238  32.5444
18.6998  57.2355
18.7757  67.4131
18.8517  59.7151
18.9276  37.5501
19.0035  20.0006
19.0795  6.80056
19.1554  0.950759
19.2314  2.79014
19.3073  10.733
19.3833  39.8346
19.4592  69.2958
19.5352  51.0642
19.6111  29.2299
19.687  15.0389
19.763  9.14112
19.8389  4.93151
19.9149  3.35432
19.9908  5.62883
20.0668  8.50891
20.1427  12.7163
20.2187  14.6199
20.2946  14.6625
20.3706  16.9988
20.4465  20.7079
20.5224  24.8775
20.5984  32.716
20.6743  43.0015
20.7503  55.4739
20.8262  84.9512
20.9022  193.939
20.9781  228.337
21.0541  61.2429
21.13  16.5964
21.2059  4.49769
21.2819  0.59059
21.3578  3.48175
21.4338  9.08373
21.5097  10.4943
21.5857  13.0835
21.6616  9.54649
21.7376  2.29149
21.8135  0.308671
21.8894  -0.77393
21.9654  -0.514822
22.0413  0.417349
22.1173  0.236195
22.1932  0.744012
22.2692  0.313979
22.3451  0.289099
22.4211  0.0982473
22.497  -0.409373
22.5729  -0.0146302
22.6489  -0.0554556
22.7248  0.0792612
22.8008  0.587524
22.8767  0.87484
22.9527  0.164911
23.0286  0.174069
23.1046  0.40656
23.1805  0.880996
23.2565  -0.00318875
23.3324  0.105339
23.4083  0.409394
23.4843  0.460138
23.5602  -0.0397526
23.6362  0.519058
23.7121  0.131841
23.7881  0.134609
23.864  0.471576
23.94  0.12838
24.0159  -0.0129619
24.0918  0.0663866
24.1678  0.247784
24.2437  0.189898