File: data/processed/Run1_XRD/7_ReMoB2_33p0GPa_390psi_P1_C4_D1w_059.dat
2.82731  0.732349
2.90325  1.14243
2.9792  0.581137
3.05514  0.054704
3.13109  1.48044
3.20703  2.00467
3.28298  3.2764
3.35892  4.4412
3.43487  20.9834
3.51081  31.4949
3.58676  6.30979
3.6627  2.04389
3.73864  1.90074
3.81459  0.696528
3.89053  1.21459
3.96648  0.895683
4.04242  0.00447604
4.11837  0.793702
4.19431  0.77751
4.27026  0.742388
4.3462  0.570033
4.42215  0.133367
4.49809  0.0373634
4.57404  0.51649
4.64998  -0.0934335
4.72593  1.10734
4.80187  0.652809
4.87782  1.02953
4.95376  -0.0196437
5.02971  0.765032
5.10565  0.556921
5.1816  0.101582
5.25754  0.435846
5.33349  0.341572
5.40943  0.115915
5.48537  0.785685
5.56132  1.3804
5.63726  0.955799
5.71321  0.904831
5.78915  0.189745
5.8651  0.223838
5.94104  0.687917
6.01699  0.336171
6.09293  0.361886
6.16888  0.456824
6.24482  0.293772
6.32077  1.02536
6.39671  1.09052
6.47266  1.92746
6.5486  6.8562
6.62455  24.5476
6.70049  18.8805
6.77644  14.4671
6.85238  41.088
6.92833  171.082
7.00427  167.959
7.08021  84.427
7.15616  16.7516
7.2321  4.17971
7.30805  1.25716
7.38399  0.922583
7.45994  0.620764
7.53588  0.747792
7.61183  0.925519
7.68777  0.762354
7.76372  0.733583
7.83966  -0.203068
7.91561  1.08459
7.99155  0.952283
8.0675  1.50075
8.14344  0.348631
8.21939  0.441332
8.29533  0.188647
8.37128  0.929399
8.44722  1.41679
8.52317  1.49595
8.59911  0.697847
8.67506  0.381543
8.751  0.173773
8.82694  -0.131661
8.90289  -0.427457
8.97883  0.841655
9.05478  3.11476
9.13072  8.08452
9.20667  27.5471
9.28261  109.624
9.35856  388.941
9.4345  666.713
9.51045  686.165
9.58639  542.09
9.66234  326.729
9.73828  104.917
9.81423  36.3931
9.89017  9.60573
9.96612  0.871811
10.0421  -0.56829
10.118  1.3362
10.194  1.03258
10.2699  0.613399
10.3458  5.31682
10.4218  37.2063
10.4977  50.6289
10.5737  28.6144
10.6496  30.0921
10.7256  36.6087
10.8015  47.6382
10.8775  56.5741
10.9534  60.7703
11.0293  52.5434
11.1053  38.6423
11.1812  29.0424
11.2572  18.7983
11.3331  11.2198
11.4091  6.05121
11.485  7.22684
11.561  3.2358
11.6369  -0.095783
11.7128  2.89872
11.7888  1.56135
11.8647  0.94393
11.9407  -0.702892
12.0166  -1.12372
12.0926  3.19117
12.1685  9.45402
12.2445  13.713
12.3204  27.7616
12.3963  96.0872
12.4723  430.859
12.5482  513
12.6242  204.096
12.7001  104.899
12.7761  72.1327
12.852  66.602
12.928  69.7356
13.0039  69.4469
13.0799  63.242
13.1558  58.4976
13.2317  66.8709
13.3077  125.682
13.3836  345.891
13.4596  206.255
13.5355  41.1266
13.6115  4.25576
13.6874  0.0438623
13.7634  2.70833
13.8393  6.18265
13.9152  8.24406
13.9912  7.75245
14.0671  5.39638
14.1431  1.65899
14.219  0.342535
14.295  -1.02364
14.3709  -0.406533
14.4469  -0.37888
14.5228  -0.288695
14.5987  -0.206649
14.6747  0.377364
14.7506  0.605507
14.8266  1.04251
14.9025  0.430641
14.9785  0.58055
15.0544  -0.0360946
15.1304  0.208761
15.2063  0.396248
15.2823  -0.257741
15.3582  0.573179
15.4341  1.77839
15.5101  1.63571
15.586  3.11813
15.662  4.02934
15.7379  5.68715
15.8139  9.67968
15.8898  16.2593
15.9658  25.7651
16.0417  30.4531
16.1176  24.8361
16.1936  15.3792
16.2695  13.6775
16.3455  11.1771
16.4214  8.44139
16.4974  6.40837
16.5733  4.75254
16.6493  4.77829
16.7252  4.80631
16.8011  1.68655
16.8771  0.919574
16.953  -0.206217
17.029  -0.154129
17.1049  -0.0748172
17.1809  -1.02919
17.2568  -0.447258
17.3328  0.197715
17.4087  2.38213
17.4846  7.33121
17.5606  21.1948
17.6365  61.1977
17.7125  86.044
17.7884  98.8686
17.8644  126.35
17.9403  160.869
18.0163  200.288
18.0922  72.5538
18.1682  33.9995
18.2441  18.0129
18.32  15.6308
18.396  13.9733
18.4719  11.4917
18.5479  10.667
18.6238  13.8956
18.6998  27.6727
18.7757  47.0099
18.8517  61.0529
18.9276  49.7706
19.0035  47.1062
19.0795  80.1078
19.1554  63.1008
19.2314  18.0298
19.3073  7.3642
19.3833  10.8181
19.4592  21.0672
19.5352  27.0123
19.6111  25.6757
19.687  24.4012
19.763  12.5447
19.8389  3.52595
19.9149  0.477137
19.9908  1.6267
20.0668  2.91396
20.1427  3.55592
20.2187  5.27427
20.2946  6.80512
20.3706  8.72183
20.4465  10.3514
20.5224  12.8708
20.5984  15.27
20.6743  18.0509
20.7503  23.528
20.8262  31.3485
20.9022  43.7555
20.9781  67.394
21.0541  94.2443
21.13  50.289
21.2059  17.1829
21.2819  3.67013
21.3578  1.54344
21.4338  6.42453
21.5097  20.7554
21.5857  30.3293
21.6616  28.5794
21.7376  21.9802
21.8135  12.521
21.8894  2.6149
21.9654  -0.0777072
22.0413  -0.605339
22.1173  -0.0948523
22.1932  0.186946
22.2692  -0.0402358
22.3451  0.395722
22.4211  0.391452
22.497  -0.0227672
22.5729  0.470952
22.6489  -0.281574
22.7248  -0.038097
22.8008  -0.11514
22.8767  0.200635
22.9527  0.0850893
23.0286  0.0781145
23.1046  0.462059
23.1805  -0.0433594
23.2565  0.261061
23.3324  0.182458
23.4083  -0.0465058
23.4843  0.578996
23.5602  0.351806
23.6362  0.668425
23.7121  0.412942
23.7881  0.523243
23.864  0.0810877
23.94  0.144567
24.0159  0.371941
24.0918  -0.0134753
24.1678  0.063259
24.2437  -0.0631324