File: data/processed/Run1_XRD/8_ReMoB2_38p0GPa_430psi_P1_C4_D1w_065.dat
2.82731  0.433792
2.90325  0.0856911
2.9792  1.15121
3.05514  0.323442
3.13109  1.58809
3.20703  1.01646
3.28298  1.57682
3.35892  3.22011
3.43487  10.5139
3.51081  23.4617
3.58676  6.60788
3.6627  1.69728
3.73864  0.91341
3.81459  1.05774
3.89053  0.788651
3.96648  1.15288
4.04242  0.792682
4.11837  0.709943
4.19431  0.82203
4.27026  0.267032
4.3462  0.356625
4.42215  0.954117
4.49809  0.0882873
4.57404  0.311859
4.64998  0.995075
4.72593  0.896297
4.80187  1.54273
4.87782  1.29682
4.95376  1.7994
5.02971  1.48836
5.10565  1.22351
5.1816  0.387102
5.25754  1.37395
5.33349  -0.565166
5.40943  1.45246
5.48537  1.02723
5.56132  1.98108
5.63726  0.164344
5.71321  1.68683
5.78915  1.90297
5.8651  0.727512
5.94104  -0.0701586
6.01699  0.46879
6.09293  0.902869
6.16888  0.176978
6.24482  0.744295
6.32077  1.65558
6.39671  1.8099
6.47266  2.82913
6.5486  8.1292
6.62455  49.7047
6.70049  75.7782
6.77644  28.4883
6.85238  26.3075
6.92833  71.4907
7.00427  130.551
7.08021  82.7248
7.15616  19.5428
7.2321  6.85988
7.30805  2.72724
7.38399  2.32338
7.45994  0.863335
7.53588  -0.182206
7.61183  0.535198
7.68777  1.47847
7.76372  1.11373
7.83966  -0.0105893
7.91561  0.934133
7.99155  1.12474
8.0675  0.505004
8.14344  0.861004
8.21939  0.455102
8.29533  0.625113
8.37128  -0.187936
8.44722  1.29221
8.52317  0.382628
8.59911  0.774005
8.67506  0.242477
8.751  0.119185
8.82694  -0.150483
8.90289  0.0131741
8.97883  0.314855
9.05478  1.77682
9.13072  6.35887
9.20667  19.8785
9.28261  74.6601
9.35856  322.677
9.4345  713.522
9.51045  926.259
9.58639  784.38
9.66234  490.886
9.73828  217.583
9.81423  80.9108
9.89017  29.6404
9.96612  8.65987
10.0421  0.942839
10.118  0.140877
10.194  2.69694
10.2699  2.56274
10.3458  -0.191799
10.4218  3.8856
10.4977  15.0779
10.5737  21.6975
10.6496  31.0435
10.7256  44.826
10.8015  58.6005
10.8775  70.1371
10.9534  72.9138
11.0293  67.4539
11.1053  52.8727
11.1812  39.8453
11.2572  29.0597
11.3331  15.4784
11.4091  6.99142
11.485  5.38164
11.561  3.42371
11.6369  -0.669854
11.7128  -2.44731
11.7888  0.120132
11.8647  4.29814
11.9407  4.63679
12.0166  6.89691
12.0926  12.4172
12.1685  22.9365
12.2445  40.9214
12.3204  52.7881
12.3963  60.8456
12.4723  119.694
12.5482  290.576
12.6242  212.45
12.7001  141.947
12.7761  105.174
12.852  95.696
12.928  98.5728
13.0039  100.526
13.0799  90.8449
13.1558  74.1442
13.2317  58.4896
13.3077  49.9313
13.3836  50.3541
13.4596  39.1662
13.5355  11.5386
13.6115  -0.976583
13.6874  -1.75978
13.7634  0.539097
13.8393  4.20651
13.9152  9.60143
13.9912  12.4426
14.0671  9.22801
14.1431  4.10982
14.219  1.55539
14.295  -0.0254102
14.3709  -0.345081
14.4469  -0.64424
14.5228  -0.667036
14.5987  -0.332889
14.6747  0.37056
14.7506  1.04648
14.8266  2.90369
14.9025  2.91387
14.9785  1.1792
15.0544  0.726967
15.1304  -0.462094
15.2063  0.288137
15.2823  -0.435657
15.3582  0.789302
15.4341  1.16873
15.5101  1.20649
15.586  2.42962
15.662  2.8923
15.7379  3.74708
15.8139  4.91022
15.8898  5.72139
15.9658  8.32337
16.0417  14.2632
16.1176  22.6891
16.1936  23.7795
16.2695  16.8244
16.3455  12.8894
16.4214  9.30487
16.4974  7.49646
16.5733  6.13393
16.6493  6.30472
16.7252  5.77642
16.8011  4.00044
16.8771  1.77702
16.953  0.535571
17.029  -0.390418
17.1049  -0.0979427
17.1809  0.325963
17.2568  -0.696538
17.3328  -0.177429
17.4087  0.0379323
17.4846  2.37288
17.5606  5.74279
17.6365  12.8203
17.7125  33.8197
17.7884  84.1233
17.8644  175.672
17.9403  242.452
18.0163  210.745
18.0922  146.396
18.1682  63.5699
18.2441  30.9699
18.32  19.8882
18.396  14.145
18.4719  12.8519
18.5479  15.8967
18.6238  22.2926
18.6998  31.4111
18.7757  38.9142
18.8517  48.6936
18.9276  51.4008
19.0035  43.1688
19.0795  39.615
19.1554  47.1549
19.2314  39.2563
19.3073  15.3882
19.3833  2.67028
19.4592  6.3532
19.5352  16.2471
19.6111  22.6573
19.687  21.0118
19.763  15.5676
19.8389  9.02178
19.9149  4.88919
19.9908  2.4463
20.0668  2.48068
20.1427  2.83143
20.2187  3.54143
20.2946  5.66186
20.3706  8.64218
20.4465  10.8328
20.5224  11.8824
20.5984  14.4141
20.6743  18.0862
20.7503  21.6942
20.8262  25.7108
20.9022  29.292
20.9781  30.6355
21.0541  30.2002
21.13  25.757
21.2059  13.2184
21.2819  4.96086
21.3578  0.262956
21.4338  -0.283914
21.5097  3.3803
21.5857  22.7992
21.6616  50.1588
21.7376  73.6122
21.8135  46.6194
21.8894  19.2411
21.9654  12.6401
22.0413  6.62945
22.1173  0.429273
22.1932  -0.612691
22.2692  -0.358241
22.3451  -0.0225982
22.4211  0.384657
22.497  0.293801
22.5729  0.517754
22.6489  0.595126
22.7248  0.319395
22.8008  -0.0791804
22.8767  0.0205254
22.9527  0.0996669
23.0286  0.0410723
23.1046  0.401567
23.1805  0.272138
23.2565  0.285344
23.3324  0.0381103
23.4083  -0.175926
23.4843  0.469708
23.5602  0.575663
23.6362  0.360442
23.7121  -0.01714
23.7881  0.461425
23.864  0.230055
23.94  0.273918
24.0159  0.0949855
24.0918  0.133589
24.1678  -0.0642427
24.2437  -0.186892