File: data/processed/Run1_XRD/9_ReMoB2_45p0GPa_470psi_P1_C4_D1w_071.dat
2.82731  0.627056
2.90325  0.743882
2.9792  1.39969
3.05514  -0.0347317
3.13109  2.78431
3.20703  0.923851
3.28298  2.57312
3.35892  4.26974
3.43487  12.705
3.51081  30.7484
3.58676  7.56088
3.6627  2.77866
3.73864  1.35225
3.81459  1.04877
3.89053  0.0249396
3.96648  0.797105
4.04242  0.35321
4.11837  0.632267
4.19431  0.833513
4.27026  0.577061
4.3462  0.354736
4.42215  -0.0967941
4.49809  0.121703
4.57404  0.384625
4.64998  0.293103
4.72593  0.330575
4.80187  0.708035
4.87782  0.732646
4.95376  0.236727
5.02971  0.831657
5.10565  0.899666
5.1816  0.04785
5.25754  0.515612
5.33349  0.828939
5.40943  0.87326
5.48537  0.739884
5.56132  -0.0418585
5.63726  1.7941
5.71321  1.22867
5.78915  1.50198
5.8651  -0.100338
5.94104  0.660693
6.01699  -0.40698
6.09293  -0.226277
6.16888  0.634846
6.24482  0.132552
6.32077  1.63461
6.39671  2.88976
6.47266  3.36213
6.5486  5.49977
6.62455  15.1688
6.70049  42.1591
6.77644  39.9279
6.85238  35.4834
6.92833  80.9644
7.00427  208.717
7.08021  130.227
7.15616  38.7239
7.2321  13.1889
7.30805  5.38569
7.38399  2.37542
7.45994  1.79609
7.53588  0.389255
7.61183  0.332188
7.68777  0.558057
7.76372  0.271051
7.83966  1.00424
7.91561  0.385386
7.99155  0.0932955
8.0675  0.556176
8.14344  0.0147764
8.21939  1.55898
8.29533  0.994957
8.37128  0.242231
8.44722  0.770623
8.52317  0.601889
8.59911  0.60668
8.67506  0.0488073
8.751  -0.0213127
8.82694  -0.0994001
8.90289  -0.128226
8.97883  0.106017
9.05478  1.88119
9.13072  10.4051
9.20667  29.4492
9.28261  73.2483
9.35856  203.064
9.4345  590.574
9.51045  1045.91
9.58639  1011.3
9.66234  616.099
9.73828  313.707
9.81423  138.593
9.89017  53.8354
9.96612  17.8255
10.0421  3.78401
10.118  0.190613
10.194  0.0487721
10.2699  0.0257901
10.3458  -1.08162
10.4218  -0.0325085
10.4977  11.9759
10.5737  22.0304
10.6496  24.26
10.7256  28.3797
10.8015  35.8476
10.8775  44.7206
10.9534  54.4363
11.0293  63.4723
11.1053  65.4344
11.1812  58.376
11.2572  65.3259
11.3331  58.0708
11.4091  30.2764
11.485  12.6461
11.561  5.55314
11.6369  1.62158
11.7128  -1.20766
11.7888  5.64737
11.8647  14.4927
11.9407  15.266
12.0166  14.2467
12.0926  13.8405
12.1685  14.3916
12.2445  15.722
12.3204  21.346
12.3963  31.2737
12.4723  50.3353
12.5482  87.911
12.6242  116.464
12.7001  97.7627
12.7761  71.451
12.852  62.8252
12.928  61.8807
13.0039  59.9077
13.0799  57.0298
13.1558  53.2319
13.2317  45.3881
13.3077  37.7151
13.3836  33.7846
13.4596  38.1407
13.5355  33.8318
13.6115  10.5603
13.6874  -1.04789
13.7634  -0.720272
13.8393  0.864464
13.9152  5.95169
13.9912  16.0464
14.0671  19.0566
14.1431  11.0126
14.219  3.80407
14.295  0.984974
14.3709  0.166392
14.4469  0.00885765
14.5228  -0.399378
14.5987  -0.175828
14.6747  -0.284475
14.7506  -0.141628
14.8266  0.18177
14.9025  1.24269
14.9785  0.883909
15.0544  0.88102
15.1304  -0.412572
15.2063  -0.316437
15.2823  -0.0141013
15.3582  -0.0122136
15.4341  0.318668
15.5101  0.932523
15.586  2.15994
15.662  10.226
15.7379  9.87436
15.8139  6.56633
15.8898  8.53472
15.9658  10.1684
16.0417  13.3877
16.1176  18.5207
16.1936  27.2623
16.2695  31.8238
16.3455  23.5764
16.4214  15.3889
16.4974  11.5925
16.5733  9.49386
16.6493  8.68144
16.7252  7.88863
16.8011  7.00945
16.8771  4.96223
16.953  2.70982
17.029  0.473645
17.1049  -0.158837
17.1809  0.0242787
17.2568  -0.110067
17.3328  -0.942212
17.4087  0.724408
17.4846  4.59992
17.5606  8.21307
17.6365  10.5598
17.7125  16.6294
17.7884  26.494
17.8644  55.5572
17.9403  112.141
18.0163  129.938
18.0922  105.176
18.1682  72.4672
18.2441  36.3385
18.32  17.9653
18.396  11.1521
18.4719  8.11103
18.5479  7.98533
18.6238  9.87064
18.6998  15.7709
18.7757  24.9683
18.8517  35.8639
18.9276  42.3689
19.0035  41.8379
19.0795  31.5312
19.1554  19.1638
19.2314  10.1049
19.3073  3.09581
19.3833  0.376563
19.4592  2.71742
19.5352  11.2414
19.6111  26.3851
19.687  42.957
19.763  56.0608
19.8389  54.2509
19.9149  39.3802
19.9908  23.2655
20.0668  14.6441
20.1427  11.5924
20.2187  11.2761
20.2946  12.007
20.3706  12.4944
20.4465  13.2256
20.5224  13.1798
20.5984  13.804
20.6743  14.2083
20.7503  15.0818
20.8262  17.1532
20.9022  19.3833
20.9781  20.3506
21.0541  20.8433
21.13  18.5491
21.2059  12.9393
21.2819  7.52931
21.3578  3.32283
21.4338  0.993406
21.5097  -0.564325
21.5857  0.710166
21.6616  7.58264
21.7376  27.1148
21.8135  64.9759
21.8894  89.6196
21.9654  45.8239
22.0413  16.0767
22.1173  8.4958
22.1932  2.11021
22.2692  -0.576449
22.3451  -0.430678
22.4211  1.17515
22.497  0.438112
22.5729  0.22312
22.6489  0.241259
22.7248  0.207672
22.8008  0.165311
22.8767  -0.206813
22.9527  -0.175074
23.0286  0.107908
23.1046  0.681309
23.1805  0.473012
23.2565  0.384411
23.3324  -0.136743
23.4083  0.0380341
23.4843  0.777746
23.5602  1.5881
23.6362  0.406043
23.7121  0.0720955
23.7881  0.32177
23.864  -0.13147
23.94  0.414301
24.0159  0.0864975
24.0918  0.00677762
24.1678  0.00911045
24.2437  -0.0580584