File: data/processed/Run2_XRD/10_ReMoB2_530psi_noRuby_S_P1_C1_D1w_067.dat
2.93393  0.672171
3.00995  0.495623
3.08596  1.3573
3.16197  2.02086
3.23799  1.57114
3.314  2.10321
3.39001  4.02527
3.46603  11.5079
3.54204  23.319
3.61805  5.24894
3.69407  2.45052
3.77008  0.835831
3.84609  0.819707
3.9221  0.868841
3.99812  1.41382
4.07413  0.559674
4.15014  0.616469
4.22616  0.851059
4.30217  0.718373
4.37818  0.557443
4.4542  0.735583
4.53021  1.49933
4.60622  0.97582
4.68224  0.32498
4.75825  1.03432
4.83426  1.05529
4.91027  1.01116
4.98629  0.165735
5.0623  0.142406
5.13831  1.08102
5.21433  0.433759
5.29034  0.812338
5.36635  0.282183
5.44237  -0.0245502
5.51838  0.831757
5.59439  0.73977
5.67041  0.0340527
5.74642  0.811589
5.82243  4.29936
5.89844  2.13458
5.97446  0.470363
6.05047  0.393551
6.12648  -0.0522878
6.2025  0.781252
6.27851  0.692352
6.35452  2.07513
6.43054  12.1915
6.50655  8.27468
6.58256  2.13086
6.65857  1.5981
6.73459  7.30928
6.8106  11.1842
6.88661  11.4123
6.96263  31.778
7.03864  80.1836
7.11465  57.8666
7.19067  17.6721
7.26668  6.67577
7.34269  2.86226
7.41871  1.00223
7.49472  0.758364
7.57073  0.169529
7.64674  0.462933
7.72276  0.192141
7.79877  0.659261
7.87478  0.335182
7.9508  0.947557
8.02681  1.16162
8.10282  0.388208
8.17884  1.09635
8.25485  0.946244
8.33086  -0.155992
8.40688  0.904055
8.48289  0.649612
8.5589  0.260926
8.63491  -0.0946203
8.71093  -0.118172
8.78694  0.901059
8.86295  0.182737
8.93897  0.592819
9.01498  0.723861
9.09099  4.69211
9.16701  15.9916
9.24302  42.3242
9.31903  74.2383
9.39505  116.489
9.47106  203.491
9.54707  368.881
9.62308  393.821
9.6991  264.972
9.77511  171.648
9.85112  86.9378
9.92714  33.6368
10.0031  12.1859
10.0792  3.12328
10.1552  0.555463
10.2312  -0.902797
10.3072  -0.620853
10.3832  0.647408
10.4592  1.82987
10.5352  5.43818
10.6113  13.2973
10.6873  17.0602
10.7633  18.6905
10.8393  17.1146
10.9153  19.68
10.9913  22.8672
11.0673  28.3657
11.1433  33.1961
11.2194  31.4954
11.2954  29.9633
11.3714  31.2222
11.4474  21.5246
11.5234  9.2225
11.5994  3.14164
11.6754  2.16481
11.7515  0.763938
11.8275  -0.7784
11.9035  -0.719621
11.9795  2.46917
12.0555  10.9803
12.1315  35.2624
12.2075  65.5942
12.2835  55.2597
12.3596  31.8103
12.4356  28.0969
12.5116  35.7855
12.5876  54.0421
12.6636  83.2116
12.7396  104.718
12.8156  80.5794
12.8916  48.7137
12.9677  36.5585
13.0437  33.3308
13.1197  30.9489
13.1957  29.7254
13.2717  28.0301
13.3477  27.2247
13.4237  27.5822
13.4998  31.8614
13.5758  33.801
13.6518  21.0531
13.7278  5.74323
13.8038  0.451708
13.8798  -0.422528
13.9558  1.18998
14.0318  2.47496
14.1079  4.96545
14.1839  8.72115
14.2599  12.3454
14.3359  15.2406
14.4119  6.12662
14.4879  -0.400749
14.5639  -0.64721
14.6399  -0.313176
14.716  0.28322
14.792  -0.00560112
14.868  0.54185
14.944  0.863319
15.02  0.30214
15.096  0.302398
15.172  0.919862
15.2481  0.253681
15.3241  -0.0555373
15.4001  0.379403
15.4761  0.142614
15.5521  0.56842
15.6281  0.399505
15.7041  1.30714
15.7801  2.22731
15.8562  3.53237
15.9322  5.5469
16.0082  8.46574
16.0842  11.5703
16.1602  15.4126
16.2362  19.2197
16.3122  21.0067
16.3882  23.2605
16.4643  28.4978
16.5403  30.5635
16.6163  26.3619
16.6923  17.3331
16.7683  10.1964
16.8443  6.23984
16.9203  3.61845
16.9964  3.04406
17.0724  2.03101
17.1484  1.82146
17.2244  1.58077
17.3004  1.68872
17.3764  2.19166
17.4524  2.96081
17.5284  3.92643
17.6045  5.4248
17.6805  7.89968
17.7565  12.7578
17.8325  21.1692
17.9085  35.7693
17.9845  53.2396
18.0605  61.3388
18.1365  58.0615
18.2126  46.7171
18.2886  32.3779
18.3646  19.8616
18.4406  11.385
18.5166  6.64474
18.5926  3.8537
18.6686  1.69169
18.7447  -0.0701542
18.8207  -0.199746
18.8967  0.251714
18.9727  1.25758
19.0487  3.70563
19.1247  4.10841
19.2007  4.00582
19.2767  2.40872
19.3528  0.594098
19.4288  -0.491374
19.5048  -0.413123
19.5808  -0.122995
19.6568  0.633383
19.7328  1.46967
19.8088  3.2868
19.8848  5.21363
19.9609  6.4085
20.0369  5.40958
20.1129  3.03943
20.1889  1.88322
20.2649  1.36622
20.3409  0.748628
20.4169  0.752061
20.493  0.30624
20.569  0.55946
20.645  0.41077
20.721  0.106443
20.797  -0.0910232
20.873  0.292713
20.949  -0.0240718
21.025  0.222673
21.1011  0.450356
21.1771  0.207843
21.2531  0.184049
21.3291  0.011739
21.4051  0.041442
21.4811  0.219952
21.5571  0.00823063
21.6331  0.0858738
21.7092  -0.0215614
21.7852  0.0559086
21.8612  0.0501058
21.9372  -0.00744158
22.0132  -0.080416
22.0322  0.0252004