File: data/processed/Run2_XRD/11_ReMoB2_550psi_noRuby_S_P1_C1_D1w_073.dat
2.93393  0.472962
3.00995  -0.0947123
3.08596  1.40163
3.16197  0.256265
3.23799  1.47628
3.314  0.988981
3.39001  3.10227
3.46603  9.12639
3.54204  24.2586
3.61805  5.26664
3.69407  2.38167
3.77008  1.39844
3.84609  1.59238
3.9221  1.00702
3.99812  0.906493
4.07413  1.11179
4.15014  1.08936
4.22616  0.311515
4.30217  0.45193
4.37818  0.426714
4.4542  0.767459
4.53021  1.1681
4.60622  0.657843
4.68224  1.28723
4.75825  0.167665
4.83426  0.283699
4.91027  0.540687
4.98629  0.00846925
5.0623  1.04827
5.13831  0.553845
5.21433  0.493481
5.29034  0.111804
5.36635  0.516464
5.44237  -0.182338
5.51838  0.661759
5.59439  -0.206929
5.67041  0.476277
5.74642  1.15628
5.82243  2.43068
5.89844  1.29659
5.97446  0.556891
6.05047  0.745104
6.12648  0.927862
6.2025  -0.328592
6.27851  1.10234
6.35452  0.999451
6.43054  6.31586
6.50655  5.31252
6.58256  1.06901
6.65857  1.30856
6.73459  5.11316
6.8106  8.64178
6.88661  9.29555
6.96263  22.7263
7.03864  72.8556
7.11465  76.6962
7.19067  26.6721
7.26668  7.66007
7.34269  3.06518
7.41871  1.34401
7.49472  0.385277
7.57073  0.39737
7.64674  0.368726
7.72276  0.0103834
7.79877  0.336006
7.87478  0.426795
7.9508  0.909462
8.02681  0.463526
8.10282  0.275181
8.17884  0.397168
8.25485  -0.0238201
8.33086  1.11336
8.40688  0.0706965
8.48289  1.02981
8.5589  0.295011
8.63491  -0.488771
8.71093  -0.322471
8.78694  0.29282
8.86295  0.348866
8.93897  0.42468
9.01498  1.12771
9.09099  5.66148
9.16701  18.3538
9.24302  55.9598
9.31903  103.036
9.39505  134.801
9.47106  165.46
9.54707  248.644
9.62308  306.287
9.6991  245.876
9.77511  168.891
9.85112  102.737
9.92714  44.5419
10.0031  17.0356
10.0792  5.79212
10.1552  1.62326
10.2312  -0.562431
10.3072  -0.895721
10.3832  -0.33853
10.4592  0.67072
10.5352  4.15361
10.6113  9.80255
10.6873  14.7822
10.7633  15.4463
10.8393  14.6236
10.9153  15.95
10.9913  18.5351
11.0673  24.8608
11.1433  31.2775
11.2194  31.4804
11.2954  25.3944
11.3714  19.4168
11.4474  15.6493
11.5234  9.72918
11.5994  3.67333
11.6754  0.972555
11.7515  -0.627372
11.8275  -0.803192
11.9035  1.03937
11.9795  7.73721
12.0555  27.1876
12.1315  81.7968
12.2075  181.544
12.2835  186.041
12.3596  81.7444
12.4356  38.9994
12.5116  32.3199
12.5876  37.1382
12.6636  51.8305
12.7396  74.2336
12.8156  72.341
12.8916  48.029
12.9677  36.4717
13.0437  34.6803
13.1197  35.6466
13.1957  33.6941
13.2717  30.7666
13.3477  28.3975
13.4237  25.1128
13.4998  23.8676
13.5758  23.7392
13.6518  18.6504
13.7278  7.42932
13.8038  0.605072
13.8798  -0.663365
13.9558  -0.648495
14.0318  0.679995
14.1079  3.65656
14.1839  8.00643
14.2599  11.2072
14.3359  14.4401
14.4119  9.45853
14.4879  1.58294
14.5639  -0.0716501
14.6399  -0.367018
14.716  -0.216788
14.792  -0.349694
14.868  -0.101039
14.944  0.636728
15.02  0.0804264
15.096  0.553372
15.172  -0.0901346
15.2481  1.13551
15.3241  0.367318
15.4001  0.41413
15.4761  0.487439
15.5521  0.0843907
15.6281  0.400201
15.7041  0.637551
15.7801  1.29001
15.8562  2.23366
15.9322  4.55095
16.0082  6.23146
16.0842  9.85721
16.1602  12.2818
16.2362  15.4967
16.3122  17.74
16.3882  20.0236
16.4643  25.7255
16.5403  35.9659
16.6163  38.9413
16.6923  30.6221
16.7683  18.933
16.8443  10.1895
16.9203  5.80867
16.9964  3.52419
17.0724  2.27202
17.1484  1.47596
17.2244  1.29211
17.3004  1.82479
17.3764  1.48698
17.4524  1.9952
17.5284  3.08051
17.6045  4.48956
17.6805  6.93083
17.7565  10.1339
17.8325  15.8077
17.9085  27.4894
17.9845  46.7224
18.0605  64.6646
18.1365  66.6404
18.2126  56.7571
18.2886  43.0148
18.3646  28.4577
18.4406  18.9905
18.5166  11.102
18.5926  5.94821
18.6686  3.40757
18.7447  1.36808
18.8207  0.248756
18.8967  -0.342861
18.9727  0.314037
19.0487  2.07007
19.1247  4.6933
19.2007  5.61758
19.2767  4.9161
19.3528  3.04547
19.4288  0.989362
19.5048  -0.0875357
19.5808  -0.611736
19.6568  -0.0211677
19.7328  0.465684
19.8088  0.999531
19.8848  2.23345
19.9609  3.70391
20.0369  3.86739
20.1129  2.55955
20.1889  1.44032
20.2649  0.829865
20.3409  0.317191
20.4169  0.30471
20.493  0.0566205
20.569  0.566329
20.645  0.256048
20.721  0.395866
20.797  0.310487
20.873  -0.0671385
20.949  0.292959
21.025  0.336146
21.1011  0.534952
21.1771  0.461099
21.2531  0.482832
21.3291  -0.16789
21.4051  0.262459
21.4811  0.0772036
21.5571  0.278914
21.6331  0.412077
21.7092  0.0677702
21.7852  0.225863
21.8612  -0.0210452
21.9372  0.0239142
22.0132  0.181837
22.0322  -0.0719848