File: data/processed/Run2_XRD/12_ReMoB2_575psi_noRuby_S_P1_C1_D1w_079.dat
2.93393  0.326953
3.00995  0.957969
3.08596  0.670951
3.16197  0.731356
3.23799  0.077523
3.314  1.1622
3.39001  1.71252
3.46603  4.88179
3.54204  11.3997
3.61805  4.54749
3.69407  1.59273
3.77008  1.61627
3.84609  0.66291
3.9221  0.241776
3.99812  1.28371
4.07413  0.229405
4.15014  -0.0764393
4.22616  1.21103
4.30217  0.967923
4.37818  1.61313
4.4542  0.645949
4.53021  -0.153821
4.60622  1.33817
4.68224  0.181963
4.75825  0.71097
4.83426  0.78054
4.91027  0.693361
4.98629  0.506997
5.0623  0.179521
5.13831  1.02168
5.21433  0.633063
5.29034  0.942763
5.36635  0.284904
5.44237  0.201053
5.51838  -0.0595855
5.59439  0.22858
5.67041  0.822984
5.74642  0.790193
5.82243  1.80463
5.89844  2.65297
5.97446  2.14341
6.05047  0.981138
6.12648  -0.0685458
6.2025  0.117337
6.27851  0.825252
6.35452  1.23375
6.43054  3.3327
6.50655  6.30795
6.58256  4.16856
6.65857  1.57235
6.73459  4.4728
6.8106  14.9277
6.88661  17.3688
6.96263  16.5998
7.03864  37.749
7.11465  52.5414
7.19067  29.101
7.26668  11.2721
7.34269  4.67852
7.41871  2.28629
7.49472  1.18852
7.57073  0.335743
7.64674  -0.0280906
7.72276  0.148055
7.79877  0.945525
7.87478  0.879302
7.9508  1.27647
8.02681  1.18018
8.10282  0.353351
8.17884  0.021457
8.25485  0.322916
8.33086  -0.104765
8.40688  0.181909
8.48289  -0.0599607
8.5589  1.01455
8.63491  0.364807
8.71093  -0.235073
8.78694  -0.0562876
8.86295  -0.151028
8.93897  0.205473
9.01498  0.130328
9.09099  2.04886
9.16701  8.73612
9.24302  31.2923
9.31903  97.93
9.39505  176.152
9.47106  191.85
9.54707  188.514
9.62308  229.863
9.6991  264.792
9.77511  226.993
9.85112  140.989
9.92714  79.9022
10.0031  40.0717
10.0792  17.3693
10.1552  5.88072
10.2312  0.11128
10.3072  0.0273557
10.3832  7.51327
10.4592  19.5839
10.5352  16.0058
10.6113  6.33165
10.6873  6.81494
10.7633  10.9497
10.8393  15.3119
10.9153  14.5261
10.9913  12.2421
11.0673  12.8775
11.1433  15.2372
11.2194  17.4128
11.2954  16.4417
11.3714  12.5806
11.4474  9.21904
11.5234  5.77966
11.5994  3.2998
11.6754  0.188339
11.7515  -0.606316
11.8275  -0.456583
11.9035  1.41816
11.9795  4.79509
12.0555  15.4831
12.1315  49.0378
12.2075  133.886
12.2835  235.4
12.3596  188.008
12.4356  91.1043
12.5116  47.7301
12.5876  36.4636
12.6636  36.982
12.7396  45.8405
12.8156  51.4672
12.8916  44.2254
12.9677  30.5284
13.0437  21.6854
13.1197  16.3862
13.1957  14.651
13.2717  13.6141
13.3477  13.7836
13.4237  13.0439
13.4998  12.1966
13.5758  10.9369
13.6518  9.81099
13.7278  6.53023
13.8038  2.04422
13.8798  0.426674
13.9558  2.56389
14.0318  5.10021
14.1079  6.53067
14.1839  7.58693
14.2599  7.02346
14.3359  5.59841
14.4119  3.52018
14.4879  0.426321
14.5639  -0.652456
14.6399  -0.659828
14.716  -0.357188
14.792  0.503412
14.868  0.396597
14.944  0.468689
15.02  -0.0704797
15.096  0.755472
15.172  0.509185
15.2481  0.802146
15.3241  0.111122
15.4001  0.584855
15.4761  0.25193
15.5521  0.22713
15.6281  -0.0106774
15.7041  0.302376
15.7801  1.26742
15.8562  1.51208
15.9322  2.87502
16.0082  4.67144
16.0842  7.63105
16.1602  11.2153
16.2362  15.6261
16.3122  20.3737
16.3882  23.3623
16.4643  26.2511
16.5403  26.5866
16.6163  25.9076
16.6923  23.6954
16.7683  19.3736
16.8443  12.3265
16.9203  7.35473
16.9964  4.20418
17.0724  2.65321
17.1484  2.5137
17.2244  2.06057
17.3004  2.55653
17.3764  1.92214
17.4524  1.92742
17.5284  2.66636
17.6045  3.59704
17.6805  4.34772
17.7565  6.32294
17.8325  8.96237
17.9085  13.4109
17.9845  20.7442
18.0605  32.7182
18.1365  47.5548
18.2126  58.7775
18.2886  54.4399
18.3646  41.5642
18.4406  27.9027
18.5166  16.908
18.5926  9.31641
18.6686  4.47042
18.7447  1.87316
18.8207  0.332279
18.8967  0.0111867
18.9727  0.140072
19.0487  0.0671546
19.1247  1.1172
19.2007  1.12977
19.2767  1.61918
19.3528  1.5239
19.4288  0.854166
19.5048  0.0882966
19.5808  -0.614796
19.6568  -0.106205
19.7328  -0.00764213
19.8088  0.359313
19.8848  0.766474
19.9609  0.781727
20.0369  1.70353
20.1129  1.62013
20.1889  2.27531
20.2649  2.68863
20.3409  1.97309
20.4169  2.10532
20.493  1.86954
20.569  1.59315
20.645  1.09478
20.721  0.716509
20.797  0.115044
20.873  0.125646
20.949  0.530864
21.025  0.797713
21.1011  0.302586
21.1771  0.265495
21.2531  0.246676
21.3291  0.383062
21.4051  0.133747
21.4811  0.00303944
21.5571  0.440129
21.6331  0.212084
21.7092  -0.0484956
21.7852  -0.00636132
21.8612  0.199634
21.9372  -0.062297
22.0132  0.264974
22.0322  -0.144239