File: data/processed/Run2_XRD/13_ReMoB2_605psi_noRuby_S_P1_C1_D1w_085.dat
2.93393  0.444067
3.00995  0.420141
3.08596  0.0556609
3.16197  0.471743
3.23799  0.138074
3.314  0.956036
3.39001  2.18442
3.46603  3.09717
3.54204  9.81773
3.61805  5.49865
3.69407  1.3532
3.77008  0.906333
3.84609  1.19102
3.9221  0.97802
3.99812  1.16489
4.07413  1.13529
4.15014  0.0202144
4.22616  0.481725
4.30217  -0.00516996
4.37818  0.652751
4.4542  0.813153
4.53021  1.38593
4.60622  0.257067
4.68224  0.429879
4.75825  0.409983
4.83426  -0.0330772
4.91027  0.755701
4.98629  0.906742
5.0623  0.422941
5.13831  0.123235
5.21433  0.795617
5.29034  0.981454
5.36635  0.0101875
5.44237  0.895768
5.51838  0.339376
5.59439  0.948455
5.67041  0.633552
5.74642  2.00723
5.82243  4.32662
5.89844  6.89644
5.97446  3.29075
6.05047  1.80095
6.12648  0.478883
6.2025  -0.20553
6.27851  -0.100884
6.35452  0.828575
6.43054  1.52311
6.50655  6.59975
6.58256  6.34578
6.65857  0.946665
6.73459  1.98482
6.8106  7.99297
6.88661  15.343
6.96263  12.4796
7.03864  23.6239
7.11465  48.7928
7.19067  35.3233
7.26668  13.2241
7.34269  5.62052
7.41871  3.44563
7.49472  0.62843
7.57073  0.833797
7.64674  0.424503
7.72276  0.0507304
7.79877  0.680799
7.87478  0.821578
7.9508  1.08216
8.02681  0.921982
8.10282  0.116401
8.17884  0.635847
8.25485  0.233129
8.33086  0.340471
8.40688  0.406124
8.48289  -0.135234
8.5589  0.919763
8.63491  0.300061
8.71093  -0.0383342
8.78694  0.178797
8.86295  0.192044
8.93897  0.128249
9.01498  0.548816
9.09099  2.96284
9.16701  9.90402
9.24302  33.1672
9.31903  108.921
9.39505  212.858
9.47106  238.615
9.54707  195.265
9.62308  164.171
9.6991  164.587
9.77511  156.448
9.85112  116.666
9.92714  77.0196
10.0031  46.0412
10.0792  24.7783
10.1552  10.7883
10.2312  2.46291
10.3072  -1.0942
10.3832  0.883487
10.4592  8.42546
10.5352  14.0541
10.6113  8.31229
10.6873  4.19084
10.7633  6.37612
10.8393  11.7144
10.9153  15.6378
10.9913  12.3574
11.0673  7.50549
11.1433  7.17615
11.2194  6.80604
11.2954  7.9502
11.3714  6.78877
11.4474  4.70651
11.5234  3.42598
11.5994  3.17901
11.6754  1.54473
11.7515  -0.472753
11.8275  -0.862711
11.9035  1.76978
11.9795  5.05205
12.0555  12.7925
12.1315  36.0168
12.2075  97.3961
12.2835  230.995
12.3596  349.891
12.4356  238.229
12.5116  109.334
12.5876  56.3787
12.6636  39.9995
12.7396  34.914
12.8156  35.5533
12.8916  34.331
12.9677  26.019
13.0437  18.4288
13.1197  13.3437
13.1957  10.3684
13.2717  8.4837
13.3477  8.9981
13.4237  8.37659
13.4998  8.53163
13.5758  6.85518
13.6518  5.37517
13.7278  3.91841
13.8038  0.999098
13.8798  -0.418875
13.9558  -0.139162
14.0318  3.26441
14.1079  5.39411
14.1839  6.17047
14.2599  6.7767
14.3359  9.71152
14.4119  9.22605
14.4879  4.71039
14.5639  0.964826
14.6399  -0.139297
14.716  -0.410985
14.792  -0.474796
14.868  -0.0666165
14.944  0.327197
15.02  -0.327136
15.096  0.334441
15.172  0.701675
15.2481  1.09774
15.3241  1.18074
15.4001  0.987149
15.4761  0.687751
15.5521  0.681514
15.6281  0.0847287
15.7041  -0.321683
15.7801  -0.12709
15.8562  0.68959
15.9322  1.64368
16.0082  3.69709
16.0842  5.6941
16.1602  11.208
16.2362  17.7956
16.3122  24.7245
16.3882  31.0382
16.4643  36.377
16.5403  37.3335
16.6163  31.9335
16.6923  26.4789
16.7683  24.762
16.8443  20.8132
16.9203  14.4059
16.9964  8.62346
17.0724  4.78948
17.1484  3.71455
17.2244  3.09281
17.3004  2.91054
17.3764  3.39686
17.4524  2.74278
17.5284  2.19575
17.6045  1.95191
17.6805  2.55318
17.7565  4.27644
17.8325  6.25572
17.9085  9.3244
17.9845  14.8383
18.0605  23.8762
18.1365  37.2939
18.2126  53.3612
18.2886  60.8654
18.3646  55.5193
18.4406  43.2371
18.5166  29.0085
18.5926  16.7889
18.6686  8.85404
18.7447  4.3513
18.8207  1.75281
18.8967  0.822825
18.9727  0.0768537
19.0487  -0.272066
19.1247  -0.00059151
19.2007  -0.0475158
19.2767  0.34834
19.3528  1.05751
19.4288  0.995869
19.5048  0.85505
19.5808  0.446835
19.6568  0.0915187
19.7328  -0.508764
19.8088  0.144566
19.8848  0.0317017
19.9609  0.450019
20.0369  0.437112
20.1129  0.518649
20.1889  0.497816
20.2649  1.05832
20.3409  1.13954
20.4169  1.55587
20.493  1.61887
20.569  1.78489
20.645  0.968739
20.721  0.95914
20.797  0.401137
20.873  0.157714
20.949  0.278349
21.025  0.202641
21.1011  0.114128
21.1771  0.499913
21.2531  0.132164
21.3291  0.150243
21.4051  0.0403722
21.4811  0.195628
21.5571  0.221441
21.6331  0.207271
21.7092  0.0602047
21.7852  0.0721689
21.8612  0.0843167
21.9372  -0.115916
22.0132  0.048562
22.0322  -0.0366803