File: data/processed/Run2_XRD/14_ReMoB2_635psi_noRuby_S_P1_C1_D1w_091.dat
2.93393  0.265275
3.00995  0.537975
3.08596  0.869218
3.16197  0.632698
3.23799  1.63974
3.314  1.46773
3.39001  0.493576
3.46603  3.6361
3.54204  10.5361
3.61805  7.12699
3.69407  1.77284
3.77008  1.73122
3.84609  1.34857
3.9221  0.85975
3.99812  0.847898
4.07413  1.00244
4.15014  0.252768
4.22616  0.178115
4.30217  0.54683
4.37818  0.975751
4.4542  1.53452
4.53021  0.68234
4.60622  0.762037
4.68224  0.853638
4.75825  0.635811
4.83426  1.04841
4.91027  -0.0368825
4.98629  0.61056
5.0623  0.430847
5.13831  1.64364
5.21433  0.965767
5.29034  1.13282
5.36635  0.648149
5.44237  -0.0560168
5.51838  1.09727
5.59439  0.704533
5.67041  0.790707
5.74642  0.666509
5.82243  0.781341
5.89844  1.71415
5.97446  1.75006
6.05047  1.56643
6.12648  0.57193
6.2025  0.291174
6.27851  -0.149002
6.35452  -0.26178
6.43054  1.31908
6.50655  3.83523
6.58256  6.6371
6.65857  1.70866
6.73459  0.852305
6.8106  3.50316
6.88661  8.75489
6.96263  10.5458
7.03864  18.4943
7.11465  49.3832
7.19067  49.5535
7.26668  20.3394
7.34269  7.58598
7.41871  3.56159
7.49472  2.0051
7.57073  0.882594
7.64674  0.614597
7.72276  0.413656
7.79877  0.417642
7.87478  0.323617
7.9508  0.376862
8.02681  0.571328
8.10282  0.266169
8.17884  0.637078
8.25485  0.842677
8.33086  -0.100565
8.40688  1.05272
8.48289  0.453862
8.5589  0.755443
8.63491  -0.200837
8.71093  -0.082029
8.78694  -0.213312
8.86295  0.27745
8.93897  0.919292
9.01498  1.82316
9.09099  3.689
9.16701  11.0034
9.24302  28.6344
9.31903  81.4614
9.39505  199.142
9.47106  265.481
9.54707  221.072
9.62308  150.426
9.6991  124.942
9.77511  121.76
9.85112  108.548
9.92714  83.146
10.0031  52.2214
10.0792  27.5539
10.1552  11.318
10.2312  3.62171
10.3072  -0.088817
10.3832  -1.05537
10.4592  -0.500402
10.5352  1.64881
10.6113  3.47285
10.6873  2.63432
10.7633  2.97177
10.8393  4.90075
10.9153  6.09378
10.9913  6.56542
11.0673  5.62633
11.1433  6.7489
11.2194  9.29769
11.2954  11.086
11.3714  10.9772
11.4474  7.92163
11.5234  4.09208
11.5994  1.12768
11.6754  -0.326153
11.7515  -0.82915
11.8275  -0.0332968
11.9035  1.80918
11.9795  5.71169
12.0555  14.4302
12.1315  35.3454
12.2075  87.5283
12.2835  201.048
12.3596  370.704
12.4356  376.509
12.5116  203.926
12.5876  87.2378
12.6636  44.7079
12.7396  31.1867
12.8156  26.0843
12.8916  24.3661
12.9677  21.4577
13.0437  16.3097
13.1197  12.4067
13.1957  10.0826
13.2717  9.44074
13.3477  9.73944
13.4237  10.2408
13.4998  10.7385
13.5758  9.10827
13.6518  7.02951
13.7278  4.49235
13.8038  2.30684
13.8798  0.739394
13.9558  -0.827163
14.0318  -0.127838
14.1079  2.33281
14.1839  3.5063
14.2599  4.48411
14.3359  5.10925
14.4119  5.3456
14.4879  3.99345
14.5639  2.11564
14.6399  0.207062
14.716  -0.442772
14.792  0.0432618
14.868  -0.199519
14.944  0.0668172
15.02  -0.467941
15.096  0.255737
15.172  0.303918
15.2481  0.807197
15.3241  0.989825
15.4001  0.987348
15.4761  0.942307
15.5521  0.291931
15.6281  0.0393602
15.7041  0.55997
15.7801  0.185255
15.8562  0.541919
15.9322  0.953053
16.0082  2.38324
16.0842  4.05669
16.1602  8.36699
16.2362  13.7028
16.3122  21.6785
16.3882  29.336
16.4643  34.4636
16.5403  35.998
16.6163  32.5738
16.6923  26.1209
16.7683  23.7233
16.8443  22.4789
16.9203  20.4465
16.9964  15.241
17.0724  8.83245
17.1484  4.08735
17.2244  3.0624
17.3004  2.00954
17.3764  1.84235
17.4524  2.10658
17.5284  2.33195
17.6045  1.80337
17.6805  2.54077
17.7565  2.95831
17.8325  4.81589
17.9085  7.19456
17.9845  11.7744
18.0605  18.1167
18.1365  27.0233
18.2126  41.1832
18.2886  55.2498
18.3646  62.6817
18.4406  57.3197
18.5166  43.1414
18.5926  26.1908
18.6686  14.3709
18.7447  7.50348
18.8207  3.6334
18.8967  1.86624
18.9727  0.44312
19.0487  -0.117276
19.1247  0.107505
19.2007  -0.10988
19.2767  -0.110498
19.3528  0.436996
19.4288  1.58628
19.5048  2.46852
19.5808  1.96643
19.6568  1.0519
19.7328  -0.16481
19.8088  -0.427355
19.8848  0.0790251
19.9609  -0.128403
20.0369  0.333648
20.1129  0.631016
20.1889  0.590271
20.2649  1.05155
20.3409  1.1557
20.4169  1.88501
20.493  5.48461
20.569  7.78313
20.645  4.12415
20.721  2.72178
20.797  1.17673
20.873  0.511798
20.949  0.216547
21.025  0.378539
21.1011  -0.0791118
21.1771  0.242122
21.2531  0.476961
21.3291  0.135752
21.4051  0.295686
21.4811  -0.169005
21.5571  0.11557
21.6331  0.460842
21.7092  0.279031
21.7852  0.358541
21.8612  -0.189645
21.9372  0.146341
22.0132  -0.235439
22.0322  0.169537