File: data/processed/Run2_XRD/15_ReMoB2_665psi_noRuby_S_P1_C1_D1w_097.dat
2.93393  0.30517
3.00995  0.569017
3.08596  0.272214
3.16197  0.591803
3.23799  1.02365
3.314  0.62955
3.39001  0.865221
3.46603  2.6757
3.54204  10.3168
3.61805  7.7786
3.69407  1.90587
3.77008  1.39777
3.84609  1.15953
3.9221  0.882682
3.99812  0.271008
4.07413  1.1188
4.15014  0.887192
4.22616  -0.127882
4.30217  0.213456
4.37818  1.18368
4.4542  1.51632
4.53021  0.836085
4.60622  0.458317
4.68224  0.100609
4.75825  0.382605
4.83426  0.0459025
4.91027  0.700324
4.98629  0.246212
5.0623  0.74984
5.13831  1.13317
5.21433  0.552097
5.29034  1.07139
5.36635  0.746059
5.44237  -0.179838
5.51838  1.05559
5.59439  0.292479
5.67041  0.654699
5.74642  0.129988
5.82243  1.00582
5.89844  1.721
5.97446  2.06567
6.05047  -0.0279687
6.12648  0.279573
6.2025  0.356292
6.27851  -0.0935616
6.35452  0.679917
6.43054  0.703136
6.50655  3.82641
6.58256  7.43975
6.65857  1.81476
6.73459  0.460398
6.8106  1.44257
6.88661  7.42586
6.96263  10.3083
7.03864  14.9262
7.11465  38.424
7.19067  53.7826
7.26668  27.0455
7.34269  10.4164
7.41871  5.37157
7.49472  3.11271
7.57073  2.23003
7.64674  0.82411
7.72276  0.927352
7.79877  -0.0708292
7.87478  0.561662
7.9508  0.491837
8.02681  0.51654
8.10282  0.664693
8.17884  0.376453
8.25485  0.0245716
8.33086  0.407573
8.40688  0.494956
8.48289  0.229296
8.5589  -0.306087
8.63491  -0.346555
8.71093  0.271642
8.78694  0.465238
8.86295  0.254311
8.93897  0.198565
9.01498  1.45301
9.09099  2.92957
9.16701  7.48296
9.24302  18.3217
9.31903  50.7962
9.39505  145.274
9.47106  268.81
9.54707  257.73
9.62308  178.739
9.6991  130.434
9.77511  121.377
9.85112  117.181
9.92714  97.3884
10.0031  65.8985
10.0792  38.4881
10.1552  17.0713
10.2312  6.73839
10.3072  1.37865
10.3832  -0.649474
10.4592  -0.918566
10.5352  0.586313
10.6113  3.58186
10.6873  3.1188
10.7633  3.23964
10.8393  3.07731
10.9153  3.18665
10.9913  3.85944
11.0673  4.30882
11.1433  5.75721
11.2194  7.24747
11.2954  9.8504
11.3714  11.0133
11.4474  9.0878
11.5234  5.6758
11.5994  1.82673
11.6754  0.491377
11.7515  -0.590074
11.8275  -0.416978
11.9035  1.00749
11.9795  3.6862
12.0555  9.50556
12.1315  23.8414
12.2075  60.6063
12.2835  147.176
12.3596  311.471
12.4356  436.14
12.5116  323.185
12.5876  158.44
12.6636  67.1674
12.7396  35.7802
12.8156  25.7812
12.8916  21.5569
12.9677  18.6937
13.0437  14.2223
13.1197  10.3292
13.1957  8.65892
13.2717  8.63389
13.3477  7.77933
13.4237  9.28525
13.4998  10.633
13.5758  10.4574
13.6518  8.49622
13.7278  5.22867
13.8038  3.33309
13.8798  1.46186
13.9558  -0.117918
14.0318  -0.729908
14.1079  0.39064
14.1839  1.88162
14.2599  3.78932
14.3359  5.55783
14.4119  5.9834
14.4879  5.23706
14.5639  3.2351
14.6399  0.955027
14.716  -0.0254609
14.792  -0.159629
14.868  -0.388576
14.944  -0.158492
15.02  -0.164276
15.096  0.307502
15.172  0.160243
15.2481  0.754578
15.3241  0.611189
15.4001  0.220579
15.4761  0.93071
15.5521  0.779736
15.6281  0.293466
15.7041  2.02904
15.7801  0.345479
15.8562  -0.163706
15.9322  0.649037
16.0082  1.33619
16.0842  2.27235
16.1602  5.29228
16.2362  8.64857
16.3122  14.4111
16.3882  22.2333
16.4643  27.6784
16.5403  30.5896
16.6163  29.4625
16.6923  26.7106
16.7683  23.1023
16.8443  20.8989
16.9203  20.5427
16.9964  17.6888
17.0724  13.1592
17.1484  8.02466
17.2244  4.31048
17.3004  2.88586
17.3764  1.53859
17.4524  1.94268
17.5284  2.12575
17.6045  2.45522
17.6805  2.23416
17.7565  2.70315
17.8325  3.72533
17.9085  4.71569
17.9845  8.10984
18.0605  11.9925
18.1365  18.8091
18.2126  29.0527
18.2886  41.271
18.3646  52.5989
18.4406  56.6457
18.5166  49.3835
18.5926  34.9693
18.6686  20.153
18.7447  10.1128
18.8207  5.40292
18.8967  3.58797
18.9727  1.83107
19.0487  -0.0747924
19.1247  -0.0613393
19.2007  0.113301
19.2767  -0.44524
19.3528  0.308022
19.4288  0.593508
19.5048  1.53334
19.5808  2.03439
19.6568  1.57155
19.7328  0.796249
19.8088  0.398126
19.8848  -0.317616
19.9609  -0.361475
20.0369  0.248051
20.1129  0.332262
20.1889  0.296665
20.2649  0.528375
20.3409  0.661114
20.4169  0.940346
20.493  1.74305
20.569  1.66716
20.645  1.42477
20.721  1.31616
20.797  1.09763
20.873  0.825423
20.949  0.734066
21.025  0.233619
21.1011  -0.0525304
21.1771  0.179322
21.2531  0.629237
21.3291  0.148043
21.4051  0.25242
21.4811  0.0533981
21.5571  -0.0314212
21.6331  0.0553323
21.7092  0.326716
21.7852  0.326922
21.8612  -0.224853
21.9372  0.273217
22.0132  -0.317364
22.0322  0.208125