File: data/processed/Run2_XRD/16_ReMoB2_695psi_noRuby_S_P1_C1_D1w_103.dat
2.93393  0.644381
3.00995  -0.340713
3.08596  0.814855
3.16197  1.61486
3.23799  1.08105
3.314  0.841189
3.39001  1.86338
3.46603  2.52901
3.54204  8.21001
3.61805  8.34586
3.69407  3.74048
3.77008  1.49362
3.84609  1.08533
3.9221  0.427424
3.99812  0.127805
4.07413  0.957758
4.15014  0.50062
4.22616  0.84504
4.30217  0.434966
4.37818  0.267878
4.4542  0.799789
4.53021  1.2363
4.60622  0.906118
4.68224  0.251956
4.75825  0.508702
4.83426  0.0450716
4.91027  0.595879
4.98629  0.674882
5.0623  0.656872
5.13831  1.23363
5.21433  1.69336
5.29034  0.530154
5.36635  -0.0818631
5.44237  0.312122
5.51838  1.19462
5.59439  0.752456
5.67041  1.43642
5.74642  0.134032
5.82243  1.2591
5.89844  1.77828
5.97446  2.07736
6.05047  0.759937
6.12648  0.869395
6.2025  -0.194412
6.27851  0.0600664
6.35452  0.112648
6.43054  0.309523
6.50655  3.02223
6.58256  7.01604
6.65857  0.810443
6.73459  0.819125
6.8106  0.774873
6.88661  5.03997
6.96263  10.1652
7.03864  12.9577
7.11465  28.8241
7.19067  51.5421
7.26668  31.2694
7.34269  13.2611
7.41871  6.13786
7.49472  3.27903
7.57073  2.04558
7.64674  0.969133
7.72276  0.640307
7.79877  0.321361
7.87478  0.0157219
7.9508  0.530137
8.02681  0.722849
8.10282  0.762431
8.17884  0.0475501
8.25485  0.454601
8.33086  0.418533
8.40688  -0.292933
8.48289  0.276248
8.5589  0.0356894
8.63491  0.131164
8.71093  0.323314
8.78694  -0.0547326
8.86295  0.632346
8.93897  -0.30869
9.01498  0.736461
9.09099  3.06521
9.16701  6.35519
9.24302  13.8075
9.31903  34.585
9.39505  101.552
9.47106  238.847
9.54707  281.078
9.62308  212.464
9.6991  148.132
9.77511  118.566
9.85112  107.478
9.92714  97.5219
10.0031  70.685
10.0792  46.3224
10.1552  25.0863
10.2312  10.6741
10.3072  3.68321
10.3832  0.177829
10.4592  -1.22451
10.5352  -0.512263
10.6113  3.37399
10.6873  4.23399
10.7633  3.59446
10.8393  2.17267
10.9153  2.82897
10.9913  3.39312
11.0673  3.30464
11.1433  4.07445
11.2194  4.39569
11.2954  6.2262
11.3714  7.76757
11.4474  7.23673
11.5234  4.88287
11.5994  1.93835
11.6754  0.627584
11.7515  -0.00502801
11.8275  -0.650539
11.9035  0.159892
11.9795  2.28661
12.0555  7.01773
12.1315  16.1624
12.2075  38.8427
12.2835  96.8166
12.3596  231.095
12.4356  415.128
12.5116  431.132
12.5876  263.306
12.6636  117.014
12.7396  51.8562
12.8156  30.7216
12.8916  22.8008
12.9677  18.8571
13.0437  14.9917
13.1197  11.1545
13.1957  7.81698
13.2717  6.6833
13.3477  6.46959
13.4237  6.58314
13.4998  7.57442
13.5758  7.72249
13.6518  7.1982
13.7278  5.40551
13.8038  3.57126
13.8798  1.67249
13.9558  0.59079
14.0318  -0.926155
14.1079  0.321898
14.1839  2.52757
14.2599  3.39312
14.3359  5.6704
14.4119  6.53683
14.4879  6.17788
14.5639  4.38467
14.6399  2.34332
14.716  0.369083
14.792  -0.180512
14.868  0.0891134
14.944  0.177059
15.02  -0.448978
15.096  0.0732932
15.172  0.0354133
15.2481  0.279592
15.3241  0.39597
15.4001  0.738692
15.4761  1.31514
15.5521  1.34153
15.6281  0.776773
15.7041  0.390481
15.7801  0.0633506
15.8562  0.147092
15.9322  -0.0326036
16.0082  0.30158
16.0842  1.69268
16.1602  2.90754
16.2362  6.48842
16.3122  11.2491
16.3882  18.9885
16.4643  26.74
16.5403  32.6014
16.6163  32.6775
16.6923  30.7065
16.7683  25.9097
16.8443  22.2459
16.9203  19.7407
16.9964  17.7284
17.0724  14.3294
17.1484  10.2018
17.2244  5.96929
17.3004  3.76287
17.3764  2.30874
17.4524  1.88266
17.5284  2.07938
17.6045  2.09403
17.6805  2.47726
17.7565  2.33674
17.8325  2.912
17.9085  4.12185
17.9845  5.93525
18.0605  8.33399
18.1365  13.2494
18.2126  20.433
18.2886  31.2001
18.3646  42.958
18.4406  51.7637
18.5166  51.6595
18.5926  42.6628
18.6686  28.1605
18.7447  14.7735
18.8207  6.83422
18.8967  3.92499
18.9727  2.46403
19.0487  1.26088
19.1247  -0.0804618
19.2007  -0.437614
19.2767  -0.15245
19.3528  -0.0523027
19.4288  0.281039
19.5048  0.554288
19.5808  0.458573
19.6568  0.996151
19.7328  1.16799
19.8088  0.159816
19.8848  0.0483487
19.9609  -0.29523
20.0369  -0.203546
20.1129  0.199183
20.1889  0.517253
20.2649  0.308541
20.3409  0.0176284
20.4169  0.877713
20.493  1.28967
20.569  1.71847
20.645  2.45901
20.721  1.75011
20.797  1.86272
20.873  1.21042
20.949  1.09272
21.025  0.657727
21.1011  0.0536528
21.1771  0.259551
21.2531  0.900228
21.3291  0.31929
21.4051  0.0168211
21.4811  -0.0803995
21.5571  0.215536
21.6331  0.0416051
21.7092  0.41293
21.7852  0.0730327
21.8612  -0.25875
21.9372  0.288467
22.0132  -0.472064
22.0322  0.281087