File: data/processed/Run2_XRD/17_ReMoB2_725psi_noRuby_S_P1_C1_D1w_109.dat
2.93393  0.397314
3.00995  0.0899378
3.08596  0.420609
3.16197  0.403331
3.23799  1.38441
3.314  1.8536
3.39001  1.08956
3.46603  2.74435
3.54204  7.88707
3.61805  13.8729
3.69407  3.69961
3.77008  2.00678
3.84609  0.843103
3.9221  1.18336
3.99812  0.98051
4.07413  0.399863
4.15014  1.012
4.22616  1.34992
4.30217  1.26871
4.37818  0.57784
4.4542  0.842577
4.53021  0.897062
4.60622  0.58397
4.68224  0.209086
4.75825  1.15741
4.83426  0.968423
4.91027  0.945044
4.98629  0.656943
5.0623  0.875412
5.13831  0.57071
5.21433  -0.069948
5.29034  1.90138
5.36635  0.284876
5.44237  0.33443
5.51838  0.623554
5.59439  -0.111702
5.67041  0.986318
5.74642  0.304555
5.82243  1.04157
5.89844  0.690471
5.97446  1.3065
6.05047  1.27139
6.12648  0.713649
6.2025  0.0721592
6.27851  0.424399
6.35452  0.476025
6.43054  0.454497
6.50655  1.39242
6.58256  6.18509
6.65857  2.61911
6.73459  0.344966
6.8106  0.876263
6.88661  2.90165
6.96263  8.17379
7.03864  10.7389
7.11465  25.5414
7.19067  59.5243
7.26668  44.9307
7.34269  20.6244
7.41871  9.61567
7.49472  4.83909
7.57073  3.02685
7.64674  1.9631
7.72276  1.01967
7.79877  -0.204084
7.87478  0.356903
7.9508  0.270125
8.02681  0.700244
8.10282  0.316281
8.17884  0.709723
8.25485  1.00625
8.33086  0.923013
8.40688  0.199684
8.48289  0.0119829
8.5589  0.73606
8.63491  0.206459
8.71093  -0.0896727
8.78694  -0.740129
8.86295  -0.259155
8.93897  0.11527
9.01498  0.767198
9.09099  2.1968
9.16701  5.12461
9.24302  11.5992
9.31903  26.278
9.39505  71.4115
9.47106  193.603
9.54707  288.202
9.62308  236.625
9.6991  158.652
9.77511  118.318
9.85112  109.71
9.92714  106.826
10.0031  83.5556
10.0792  55.565
10.1552  30.4655
10.2312  13.9626
10.3072  5.53763
10.3832  1.67434
10.4592  -0.779377
10.5352  -0.920283
10.6113  0.312647
10.6873  2.3022
10.7633  2.64252
10.8393  3.35455
10.9153  2.5477
10.9913  2.14487
11.0673  1.74479
11.1433  2.82921
11.2194  3.66236
11.2954  6.17387
11.3714  8.08397
11.4474  8.87026
11.5234  5.66888
11.5994  2.77859
11.6754  1.33389
11.7515  -0.282022
11.8275  -0.723105
11.9035  -0.266841
11.9795  1.59913
12.0555  5.25637
12.1315  12.058
12.2075  28.763
12.2835  69.609
12.3596  176.728
12.4356  364.868
12.5116  465.155
12.5876  333.133
12.6636  163.588
12.7396  69.6571
12.8156  35.7594
12.8916  24.2525
12.9677  19.3411
13.0437  15.1489
13.1197  12.1018
13.1957  9.18258
13.2717  7.93608
13.3477  7.80268
13.4237  7.71972
13.4998  9.2265
13.5758  9.87778
13.6518  9.90998
13.7278  7.26602
13.8038  4.90981
13.8798  2.32407
13.9558  0.572104
14.0318  -0.368884
14.1079  -0.732478
14.1839  1.11527
14.2599  2.20188
14.3359  4.79249
14.4119  7.50178
14.4879  7.06691
14.5639  5.91195
14.6399  3.59619
14.716  1.37911
14.792  0.347556
14.868  -0.486422
14.944  0.41496
15.02  -0.0865164
15.096  -0.0357139
15.172  0.200536
15.2481  0.360152
15.3241  -0.0259026
15.4001  0.303504
15.4761  0.68397
15.5521  0.888176
15.6281  0.878068
15.7041  0.407701
15.7801  0.0602791
15.8562  0.216746
15.9322  -0.129447
16.0082  0.127111
16.0842  0.739389
16.1602  2.42928
16.2362  4.42381
16.3122  8.32684
16.3882  13.9934
16.4643  21.2595
16.5403  28.0041
16.6163  30.2028
16.6923  29.4047
16.7683  27.1083
16.8443  23.7776
16.9203  20.0071
16.9964  18.0364
17.0724  16.8047
17.1484  14.5472
17.2244  9.3951
17.3004  5.71463
17.3764  3.62669
17.4524  1.97776
17.5284  1.76458
17.6045  1.4733
17.6805  2.36379
17.7565  1.96626
17.8325  2.73095
17.9085  3.22977
17.9845  4.27931
18.0605  6.41335
18.1365  10.2131
18.2126  15.9327
18.2886  24.2045
18.3646  34.3854
18.4406  43.7003
18.5166  49.0623
18.5926  47.0184
18.6686  36.4479
18.7447  22.2871
18.8207  11.2206
18.8967  5.42527
18.9727  3.81384
19.0487  2.16668
19.1247  0.666462
19.2007  -0.139921
19.2767  0.147521
19.3528  -0.0274726
19.4288  0.0773545
19.5048  0.117646
19.5808  0.557883
19.6568  0.776965
19.7328  1.05429
19.8088  0.926915
19.8848  0.43813
19.9609  0.0432852
20.0369  -0.139866
20.1129  0.0624558
20.1889  -0.0497293
20.2649  0.553728
20.3409  0.892677
20.4169  0.566722
20.493  0.701127
20.569  1.16384
20.645  1.85372
20.721  1.60246
20.797  1.50009
20.873  1.3073
20.949  1.51695
21.025  0.673825
21.1011  0.246462
21.1771  0.046318
21.2531  0.576058
21.3291  0.139461
21.4051  0.0992143
21.4811  0.162032
21.5571  -0.267776
21.6331  0.061706
21.7092  0.64192
21.7852  0.0752456
21.8612  -0.184563
21.9372  0.432925
22.0132  -0.31411
22.0322  0.219189