File: data/processed/Run2_XRD/18_ReMoB2_755psi_noRuby_S_P1_C1_D1w_115.dat
2.93393  0.375831
3.00995  1.22769
3.08596  1.53108
3.16197  0.821392
3.23799  0.854423
3.314  1.30305
3.39001  1.07593
3.46603  1.01231
3.54204  6.06371
3.61805  11.6203
3.69407  3.53222
3.77008  1.60227
3.84609  0.525368
3.9221  0.770027
3.99812  0.538585
4.07413  0.0224288
4.15014  0.63759
4.22616  0.533754
4.30217  0.00457048
4.37818  0.347546
4.4542  -0.0359234
4.53021  0.792408
4.60622  0.0574485
4.68224  0.284945
4.75825  0.242718
4.83426  0.490194
4.91027  0.195244
4.98629  0.0620108
5.0623  0.267377
5.13831  0.644646
5.21433  0.811813
5.29034  1.02956
5.36635  0.638607
5.44237  0.154249
5.51838  0.00351704
5.59439  0.519156
5.67041  0.517537
5.74642  0.0787523
5.82243  0.753708
5.89844  0.115358
5.97446  2.00619
6.05047  0.955499
6.12648  0.336178
6.2025  0.311697
6.27851  0.38924
6.35452  0.095843
6.43054  0.0817757
6.50655  1.32033
6.58256  5.02741
6.65857  2.91922
6.73459  1.52918
6.8106  0.282858
6.88661  2.20148
6.96263  6.84705
7.03864  10.7836
7.11465  19.9173
7.19067  54.5911
7.26668  49.2922
7.34269  22.5076
7.41871  9.58207
7.49472  5.14173
7.57073  3.24945
7.64674  1.54765
7.72276  1.288
7.79877  0.827975
7.87478  0.590889
7.9508  1.24302
8.02681  0.34643
8.10282  0.170638
8.17884  0.210358
8.25485  1.12255
8.33086  0.471544
8.40688  0.727769
8.48289  -0.0946811
8.5589  0.884641
8.63491  0.0329418
8.71093  -0.0496156
8.78694  -0.282989
8.86295  -0.679077
8.93897  0.304275
9.01498  0.508833
9.09099  1.97901
9.16701  4.71902
9.24302  9.88324
9.31903  21.7235
9.39505  55.9453
9.47106  154.366
9.54707  277.791
9.62308  259.467
9.6991  181.245
9.77511  129.475
9.85112  101.088
9.92714  91.4994
10.0031  77.6709
10.0792  56.1795
10.1552  34.7134
10.2312  17.7763
10.3072  7.66713
10.3832  2.47902
10.4592  -0.1842
10.5352  -1.08075
10.6113  -0.00936353
10.6873  2.62478
10.7633  4.14587
10.8393  3.84859
10.9153  2.87137
10.9913  1.4641
11.0673  1.90727
11.1433  3.087
11.2194  3.28911
11.2954  3.69037
11.3714  4.79496
11.4474  5.46144
11.5234  5.00973
11.5994  2.99767
11.6754  0.446913
11.7515  -0.429059
11.8275  -0.616079
11.9035  -0.340539
11.9795  1.20683
12.0555  3.5988
12.1315  9.93872
12.2075  20.6202
12.2835  47.3887
12.3596  118.785
12.4356  273.938
12.5116  456.149
12.5876  422.458
12.6636  246.668
12.7396  109.4
12.8156  49.4265
12.8916  30.0899
12.9677  21.917
13.0437  16.5014
13.1197  12.5654
13.1957  9.58213
13.2717  5.63053
13.3477  5.80257
13.4237  4.64003
13.4998  5.93575
13.5758  6.5615
13.6518  6.23962
13.7278  4.71627
13.8038  3.59209
13.8798  1.69278
13.9558  0.129182
14.0318  -0.103427
14.1079  -0.637151
14.1839  0.857788
14.2599  1.68862
14.3359  4.1926
14.4119  6.24791
14.4879  6.71546
14.5639  5.61822
14.6399  4.48518
14.716  2.11505
14.792  0.296431
14.868  0.240891
14.944  0.130131
15.02  -0.430555
15.096  0.4557
15.172  0.311988
15.2481  0.689676
15.3241  0.588633
15.4001  1.0262
15.4761  1.31265
15.5521  0.662196
15.6281  1.16036
15.7041  0.582007
15.7801  0.923792
15.8562  0.550744
15.9322  -0.170528
16.0082  0.362997
16.0842  0.584863
16.1602  2.21204
16.2362  3.9561
16.3122  7.67059
16.3882  13.5561
16.4643  23.2593
16.5403  33.344
16.6163  38.1919
16.6923  36.4405
16.7683  32.2486
16.8443  26.6019
16.9203  23.2491
16.9964  18.7338
17.0724  15.8949
17.1484  12.9191
17.2244  9.90615
17.3004  7.1328
17.3764  3.79793
17.4524  2.12693
17.5284  1.52147
17.6045  2.14943
17.6805  1.89252
17.7565  2.08742
17.8325  2.26188
17.9085  2.63829
17.9845  3.466
18.0605  4.8935
18.1365  7.55197
18.2126  11.5346
18.2886  18.2737
18.3646  27.6812
18.4406  38.8679
18.5166  47.1765
18.5926  48.1954
18.6686  41.2198
18.7447  28.7451
18.8207  15.3319
18.8967  6.36665
18.9727  3.39904
19.0487  2.549
19.1247  1.02023
19.2007  -0.0799063
19.2767  0.154712
19.3528  0.151631
19.4288  0.104657
19.5048  0.0912875
19.5808  0.467969
19.6568  0.400822
19.7328  0.162545
19.8088  0.557119
19.8848  0.440516
19.9609  -0.174596
20.0369  0.093842
20.1129  -0.0704084
20.1889  0.127005
20.2649  0.499701
20.3409  0.213296
20.4169  -0.0229379
20.493  0.255876
20.569  0.335274
20.645  1.20081
20.721  1.4194
20.797  1.59942
20.873  1.71757
20.949  1.28994
21.025  0.765497
21.1011  0.645751
21.1771  0.166297
21.2531  0.411421
21.3291  0.460367
21.4051  0.383441
21.4811  -0.24534
21.5571  0.193534
21.6331  0.117017
21.7092  0.189853
21.7852  0.108167
21.8612  -0.179649
21.9372  0.270198
22.0132  -0.393646
22.0322  0.238929