File: data/processed/Run2_XRD/19_ReMoB2_785psi_noRuby_S_P1_C1_D1w_121.dat
2.93393  0.464643
3.00995  0.462643
3.08596  0.753121
3.16197  0.539086
3.23799  0.334279
3.314  0.459202
3.39001  1.58532
3.46603  1.36561
3.54204  5.87612
3.61805  16.0439
3.69407  4.83661
3.77008  1.81451
3.84609  0.772204
3.9221  0.171989
3.99812  0.639727
4.07413  0.581815
4.15014  1.38636
4.22616  1.23702
4.30217  1.12392
4.37818  0.654685
4.4542  0.00715997
4.53021  0.622361
4.60622  0.599995
4.68224  0.738866
4.75825  0.282074
4.83426  0.442248
4.91027  0.817999
4.98629  0.510364
5.0623  0.0420135
5.13831  1.27405
5.21433  0.430893
5.29034  0.658944
5.36635  0.760578
5.44237  -0.117955
5.51838  0.904236
5.59439  1.08893
5.67041  0.234273
5.74642  1.05892
5.82243  -0.253203
5.89844  1.05326
5.97446  2.03824
6.05047  1.47312
6.12648  0.407593
6.2025  0.646667
6.27851  0.0570419
6.35452  0.289915
6.43054  0.926225
6.50655  0.921944
6.58256  4.5289
6.65857  4.2224
6.73459  1.20148
6.8106  -0.0774159
6.88661  1.74987
6.96263  5.20226
7.03864  10.6063
7.11465  17.0907
7.19067  49.1575
7.26668  57.0563
7.34269  30.1835
7.41871  13.4773
7.49472  7.43783
7.57073  5.45352
7.64674  2.45752
7.72276  2.14235
7.79877  0.856577
7.87478  0.745952
7.9508  0.312584
8.02681  0.326672
8.10282  0.735073
8.17884  1.02832
8.25485  0.49779
8.33086  0.262997
8.40688  -0.279808
8.48289  0.36003
8.5589  0.63301
8.63491  0.0513069
8.71093  0.207945
8.78694  -0.264584
8.86295  -0.210948
8.93897  -0.292621
9.01498  0.219623
9.09099  1.46955
9.16701  3.38545
9.24302  7.38437
9.31903  16.7401
9.39505  40.2218
9.47106  113.674
9.54707  252.763
9.62308  278.467
9.6991  201.91
9.77511  141.01
9.85112  110.81
9.92714  104.93
10.0031  94.2068
10.0792  69.7399
10.1552  43.1995
10.2312  23.5696
10.3072  10.9167
10.3832  4.05998
10.4592  0.291331
10.5352  -1.20089
10.6113  -1.07961
10.6873  1.84906
10.7633  2.88941
10.8393  3.5306
10.9153  4.10868
10.9913  1.78554
11.0673  1.46386
11.1433  1.68649
11.2194  2.7045
11.2954  3.76354
11.3714  5.91847
11.4474  7.14287
11.5234  6.32271
11.5994  4.55293
11.6754  2.37065
11.7515  -0.374586
11.8275  -0.0819196
11.9035  -0.618789
11.9795  0.462679
12.0555  1.97946
12.1315  6.39955
12.2075  15.519
12.2835  34.7074
12.3596  90.0174
12.4356  221.421
12.5116  422.026
12.5876  461.021
12.6636  306.426
12.7396  148.936
12.8156  65.0232
12.8916  34.7392
12.9677  22.4966
13.0437  17.0737
13.1197  13.3151
13.1957  10.2182
13.2717  7.31685
13.3477  6.74909
13.4237  5.97003
13.4998  7.99546
13.5758  8.65779
13.6518  8.52062
13.7278  7.87532
13.8038  5.55552
13.8798  3.31498
13.9558  0.904638
14.0318  -0.173137
14.1079  -0.735476
14.1839  -0.222013
14.2599  0.522495
14.3359  3.03409
14.4119  5.28526
14.4879  7.60741
14.5639  7.94848
14.6399  5.64763
14.716  2.13261
14.792  1.03511
14.868  0.180245
14.944  0.0805973
15.02  -0.465162
15.096  -0.0880679
15.172  0.0282293
15.2481  0.25758
15.3241  -0.0662703
15.4001  0.343891
15.4761  0.948453
15.5521  1.28306
15.6281  1.05673
15.7041  0.664459
15.7801  0.830095
15.8562  0.188125
15.9322  0.544451
16.0082  0.548668
16.0842  0.394274
16.1602  1.04398
16.2362  2.19941
16.3122  4.62365
16.3882  8.29185
16.4643  14.0611
16.5403  22.6773
16.6163  28.1921
16.6923  30.4351
16.7683  29.5043
16.8443  27.0612
16.9203  24.4687
16.9964  20.3013
17.0724  18.1433
17.1484  16.0212
17.2244  13.8566
17.3004  9.87626
17.3764  6.56525
17.4524  3.58918
17.5284  2.31656
17.6045  1.7791
17.6805  2.22723
17.7565  1.61368
17.8325  2.3527
17.9085  2.07982
17.9845  3.06313
18.0605  4.86392
18.1365  5.99539
18.2126  9.53047
18.2886  14.3831
18.3646  21.7066
18.4406  31.1946
18.5166  39.025
18.5926  42.8291
18.6686  41.9136
18.7447  33.7302
18.8207  20.6389
18.8967  9.64481
18.9727  4.84366
19.0487  3.64844
19.1247  2.77029
19.2007  0.810825
19.2767  -0.134759
19.3528  -0.201482
19.4288  0.189974
19.5048  0.0288899
19.5808  0.463068
19.6568  0.2599
19.7328  0.306919
19.8088  0.38611
19.8848  0.753374
19.9609  0.441586
20.0369  -0.12722
20.1129  0.102466
20.1889  0.101626
20.2649  0.168531
20.3409  0.128481
20.4169  0.345067
20.493  -0.0363518
20.569  0.460421
20.645  0.486316
20.721  0.958649
20.797  1.42327
20.873  1.75343
20.949  1.35586
21.025  1.34614
21.1011  0.907767
21.1771  0.64532
21.2531  0.869223
21.3291  0.2874
21.4051  0.0912417
21.4811  -0.126986
21.5571  0.0884205
21.6331  -0.0911769
21.7092  0.140123
21.7852  0.145628
21.8612  -0.159624
21.9372  0.0655746
22.0132  -0.425875
22.0322  0.236366