File: data/processed/Run2_XRD/1_ReMoB2_0bars_0p2GPa_S_P1_C1_D1w_010.dat
2.93393  0.468853
3.00995  0.379552
3.08596  1.07829
3.16197  1.48489
3.23799  1.34254
3.314  2.50774
3.39001  14.4607
3.46603  5.22625
3.54204  1.73317
3.61805  1.3334
3.69407  0.936603
3.77008  0.975194
3.84609  0.936867
3.9221  1.44188
3.99812  1.1386
4.07413  0.543142
4.15014  0.790887
4.22616  0.329096
4.30217  1.23136
4.37818  0.687802
4.4542  0.784481
4.53021  0.0208692
4.60622  0.577013
4.68224  0.387826
4.75825  0.164182
4.83426  0.576217
4.91027  0.929034
4.98629  0.0629536
5.0623  0.141721
5.13831  0.95852
5.21433  1.13574
5.29034  1.09269
5.36635  1.00437
5.44237  -0.14723
5.51838  0.638917
5.59439  0.852115
5.67041  1.83973
5.74642  0.396654
5.82243  0.626093
5.89844  0.174363
5.97446  0.569912
6.05047  0.106535
6.12648  0.729172
6.2025  2.53992
6.27851  6.82852
6.35452  0.947738
6.43054  9.12558
6.50655  2.36001
6.58256  0.417407
6.65857  0.812162
6.73459  10.4548
6.8106  41.854
6.88661  16.5124
6.96263  1.54387
7.03864  0.374545
7.11465  0.395086
7.19067  0.000713313
7.26668  0.675551
7.34269  0.200021
7.41871  0.372668
7.49472  0.279162
7.57073  0.173176
7.64674  0.0370921
7.72276  0.273025
7.79877  0.0995964
7.87478  0.0677343
7.9508  -0.125094
8.02681  1.11447
8.10282  0.329899
8.17884  0.713013
8.25485  0.830637
8.33086  1.00506
8.40688  0.54744
8.48289  0.741756
8.5589  0.510381
8.63491  0.296501
8.71093  0.118367
8.78694  0.757005
8.86295  1.17373
8.93897  1.81458
9.01498  11.6341
9.09099  107.378
9.16701  275.799
9.24302  133.557
9.31903  90.3506
9.39505  100.055
9.47106  26.5613
9.54707  3.61733
9.62308  1.0171
9.6991  0.651591
9.77511  -0.180432
9.85112  0.582622
9.92714  3.05736
10.0031  2.03007
10.0792  4.12745
10.1552  32.6578
10.2312  26.3482
10.3072  9.0981
10.3832  2.61089
10.4592  3.06468
10.5352  5.84466
10.6113  16.4514
10.6873  89.8674
10.7633  98.2301
10.8393  21.4114
10.9153  6.6985
10.9913  3.14761
11.0673  1.31095
11.1433  3.79614
11.2194  1.354
11.2954  1.31672
11.3714  0.783992
11.4474  0.00710276
11.5234  -0.233672
11.5994  -0.33084
11.6754  1.33402
11.7515  4.43117
11.8275  5.92025
11.9035  8.09293
11.9795  26.8551
12.0555  113.505
12.1315  101.175
12.2075  26.4048
12.2835  10.3158
12.3596  5.84342
12.4356  5.20003
12.5116  4.2729
12.5876  5.04263
12.6636  8.36645
12.7396  20.1981
12.8156  97.5272
12.8916  125.248
12.9677  45.9918
13.0437  9.37921
13.1197  3.17625
13.1957  1.11591
13.2717  1.06236
13.3477  2.20779
13.4237  0.14025
13.4998  0.594292
13.5758  4.57398
13.6518  10.1203
13.7278  4.64077
13.8038  0.99721
13.8798  0.00864082
13.9558  0.581819
14.0318  0.29098
14.1079  0.488874
14.1839  0.137706
14.2599  -0.204244
14.3359  0.991079
14.4119  1.62165
14.4879  0.909307
14.5639  1.11104
14.6399  0.477653
14.716  0.847631
14.792  0.575699
14.868  1.35888
14.944  1.87795
15.02  2.12704
15.096  2.12614
15.172  2.48788
15.2481  3.30438
15.3241  7.20808
15.4001  26.3048
15.4761  49.8984
15.5521  34.5311
15.6281  10.2907
15.7041  14.5969
15.7801  45.374
15.8562  40.0296
15.9322  9.64679
16.0082  3.5431
16.0842  2.82032
16.1602  3.22868
16.2362  2.26763
16.3122  2.48086
16.3882  4.75368
16.4643  4.18674
16.5403  3.95419
16.6163  1.54905
16.6923  2.29883
16.7683  2.43928
16.8443  2.67714
16.9203  3.77965
16.9964  5.63367
17.0724  11.8482
17.1484  33.7177
17.2244  64.2627
17.3004  45.4478
17.3764  32.6576
17.4524  24.3738
17.5284  13.6394
17.6045  10.2308
17.6805  8.52524
17.7565  8.20758
17.8325  8.58304
17.9085  10.339
17.9845  9.2578
18.0605  7.76293
18.1365  8.04474
18.2126  18.2908
18.2886  39.8289
18.3646  28.8942
18.4406  13.9443
18.5166  4.61747
18.5926  0.543311
18.6686  -0.529684
18.7447  3.95327
18.8207  25.7432
18.8967  18.9306
18.9727  7.06557
19.0487  10.1664
19.1247  19.1487
19.2007  10.6014
19.2767  2.48523
19.3528  -0.2772
19.4288  -0.343505
19.5048  -0.077642
19.5808  0.125648
19.6568  0.404127
19.7328  0.377493
19.8088  1.5375
19.8848  5.02724
19.9609  4.6121
20.0369  0.689194
20.1129  -0.0114587
20.1889  -0.03255
20.2649  0.417051
20.3409  0.99109
20.4169  1.96396
20.493  0.816151
20.569  0.435464
20.645  0.0723975
20.721  -0.193167
20.797  0.418894
20.873  1.17398
20.949  9.44221
21.025  6.16419
21.1011  0.120478
21.1771  0.276132
21.2531  0.13252
21.3291  0.0873421
21.4051  0.306139
21.4811  0.0195478
21.5571  0.0975183
21.6331  0.0470714
21.7092  -0.0181275
21.7852  0.273701
21.8612  -0.10239
21.9372  0.0922905
22.0132  0.0733617
22.0322  -0.0210754