File: data/processed/Run2_XRD/20_ReMoB2_815psi_noRuby_S_P1_C1_D1w_127.dat
2.93393  0.497345
3.00995  1.36318
3.08596  0.148836
3.16197  0.367839
3.23799  0.615883
3.314  1.18304
3.39001  1.97898
3.46603  1.77007
3.54204  4.22659
3.61805  9.24576
3.69407  3.46005
3.77008  2.3239
3.84609  1.13964
3.9221  1.98671
3.99812  1.13243
4.07413  0.525848
4.15014  0.56948
4.22616  0.421647
4.30217  0.755648
4.37818  0.660136
4.4542  0.633043
4.53021  0.810419
4.60622  0.859379
4.68224  0.392091
4.75825  0.649632
4.83426  0.0246747
4.91027  0.0469874
4.98629  0.473556
5.0623  0.664422
5.13831  1.20111
5.21433  0.208809
5.29034  1.31748
5.36635  -0.0503937
5.44237  0.678952
5.51838  0.44269
5.59439  0.359742
5.67041  0.404299
5.74642  0.231527
5.82243  -0.0121858
5.89844  0.857646
5.97446  3.38584
6.05047  2.91782
6.12648  1.40947
6.2025  0.0408559
6.27851  0.148517
6.35452  -0.154602
6.43054  0.90182
6.50655  1.18094
6.58256  4.44482
6.65857  5.68563
6.73459  1.44246
6.8106  -0.0803515
6.88661  1.04689
6.96263  5.97973
7.03864  13.9524
7.11465  16.536
7.19067  31.7464
7.26668  43.065
7.34269  24.1056
7.41871  11.8198
7.49472  6.70008
7.57073  3.52254
7.64674  2.68351
7.72276  1.69977
7.79877  1.25032
7.87478  0.684348
7.9508  0.337595
8.02681  0.584011
8.10282  0.0246812
8.17884  0.462282
8.25485  0.372907
8.33086  0.564049
8.40688  0.0847771
8.48289  0.344264
8.5589  0.362739
8.63491  0.0357613
8.71093  0.182613
8.78694  0.0216716
8.86295  0.292116
8.93897  -0.236349
9.01498  -0.0107493
9.09099  0.388679
9.16701  2.04397
9.24302  4.6481
9.31903  11.695
9.39505  30.4868
9.47106  87.9928
9.54707  223.635
9.62308  288.759
9.6991  236.165
9.77511  172.826
9.85112  122.059
9.92714  92.347
10.0031  75.9693
10.0792  60.4238
10.1552  41.9629
10.2312  27.7812
10.3072  15.4531
10.3832  7.2977
10.4592  2.10545
10.5352  -0.690862
10.6113  -0.639526
10.6873  4.1508
10.7633  7.0146
10.8393  5.15445
10.9153  3.4912
10.9913  1.60762
11.0673  2.19526
11.1433  4.02222
11.2194  4.20445
11.2954  2.73675
11.3714  1.44995
11.4474  2.68466
11.5234  2.07654
11.5994  1.19946
11.6754  0.99661
11.7515  0.0839136
11.8275  -0.401181
11.9035  -0.644486
11.9795  0.0138017
12.0555  1.02827
12.1315  5.03118
12.2075  10.5896
12.2835  23.7312
12.3596  58.2609
12.4356  148.846
12.5116  335.441
12.5876  483.336
12.6636  422.235
12.7396  245.388
12.8156  102.371
12.8916  48.1455
12.9677  29.3874
13.0437  20.6592
13.1197  15.1906
13.1957  10.3424
13.2717  6.7985
13.3477  4.26048
13.4237  2.35172
13.4998  1.88789
13.5758  2.64845
13.6518  2.88643
13.7278  3.28909
13.8038  2.74423
13.8798  1.38904
13.9558  0.160306
14.0318  -0.493013
14.1079  -0.171389
14.1839  0.607965
14.2599  1.74974
14.3359  4.79229
14.4119  6.10425
14.4879  6.76117
14.5639  7.47725
14.6399  7.43462
14.716  5.49039
14.792  2.19342
14.868  0.848919
14.944  0.386564
15.02  -0.194541
15.096  -0.105517
15.172  -0.23971
15.2481  0.100889
15.3241  0.191042
15.4001  0.616412
15.4761  1.09369
15.5521  0.962624
15.6281  1.00156
15.7041  0.598162
15.7801  0.723736
15.8562  -0.0620621
15.9322  0.387803
16.0082  -0.140841
16.0842  -0.106924
16.1602  0.55195
16.2362  1.66572
16.3122  3.48405
16.3882  7.29481
16.4643  13.4423
16.5403  22.7173
16.6163  33.0633
16.6923  37.5064
16.7683  36.6381
16.8443  32.4154
16.9203  27.7565
16.9964  22.8474
17.0724  19.3885
17.1484  15.5618
17.2244  12.1563
17.3004  8.83191
17.3764  6.10267
17.4524  3.61852
17.5284  2.46557
17.6045  2.6009
17.6805  2.65648
17.7565  2.79511
17.8325  3.01859
17.9085  2.82153
17.9845  3.1092
18.0605  3.46671
18.1365  4.03183
18.2126  5.93497
18.2886  10.1809
18.3646  15.4072
18.4406  24.1831
18.5166  33.7719
18.5926  41.1611
18.6686  41.3004
18.7447  33.6737
18.8207  22.7285
18.8967  12.4658
18.9727  4.96619
19.0487  2.43409
19.1247  1.28848
19.2007  0.349068
19.2767  -0.0546488
19.3528  0.373589
19.4288  0.290944
19.5048  0.0021605
19.5808  0.380412
19.6568  0.149644
19.7328  0.17847
19.8088  -0.0906451
19.8848  0.196721
19.9609  0.379716
20.0369  -0.161435
20.1129  0.121732
20.1889  0.0725154
20.2649  0.135777
20.3409  0.0246642
20.4169  0.375861
20.493  -0.0545612
20.569  0.323261
20.645  0.613214
20.721  1.45021
20.797  1.78167
20.873  1.61945
20.949  1.65842
21.025  1.498
21.1011  0.532283
21.1771  0.475632
21.2531  0.471807
21.3291  0.418937
21.4051  0.189522
21.4811  -0.0763323
21.5571  -0.196473
21.6331  0.200571
21.7092  0.303084
21.7852  -0.0173107
21.8612  -0.177703
21.9372  0.159447
22.0132  -0.354923
22.0322  0.205209