File: data/processed/Run2_XRD/21_ReMoB2_845psi_noRuby_S_P1_C1_D1w_133.dat
2.93393  0.367822
3.00995  1.83726
3.08596  2.04312
3.16197  0.539582
3.23799  0.953433
3.314  1.50113
3.39001  0.65255
3.46603  1.83855
3.54204  4.86396
3.61805  10.3968
3.69407  4.13205
3.77008  1.4604
3.84609  0.11655
3.9221  1.52522
3.99812  1.11551
4.07413  0.708945
4.15014  0.238606
4.22616  0.497171
4.30217  0.443476
4.37818  0.276167
4.4542  0.195785
4.53021  0.872888
4.60622  0.929742
4.68224  0.0555378
4.75825  0.898861
4.83426  0.677922
4.91027  1.00441
4.98629  1.03271
5.0623  0.085134
5.13831  0.933118
5.21433  1.14541
5.29034  0.70344
5.36635  0.19653
5.44237  0.113358
5.51838  1.62046
5.59439  1.50295
5.67041  0.704572
5.74642  -0.134804
5.82243  0.48589
5.89844  0.330652
5.97446  2.57697
6.05047  2.30451
6.12648  0.59468
6.2025  0.170033
6.27851  -0.195545
6.35452  0.10289
6.43054  0.2125
6.50655  -0.0402015
6.58256  3.08065
6.65857  5.31989
6.73459  1.03693
6.8106  0.217413
6.88661  0.495187
6.96263  4.03864
7.03864  10.1483
7.11465  14.4806
7.19067  31.0791
7.26668  48.3412
7.34269  28.5009
7.41871  12.8618
7.49472  6.98324
7.57073  4.54965
7.64674  2.8425
7.72276  1.84051
7.79877  1.23063
7.87478  0.976228
7.9508  0.655415
8.02681  0.782551
8.10282  -0.0450081
8.17884  0.669384
8.25485  -0.067873
8.33086  -0.168678
8.40688  0.430599
8.48289  0.655079
8.5589  0.573034
8.63491  0.24088
8.71093  0.252503
8.78694  -0.532418
8.86295  -0.371532
8.93897  -0.367098
9.01498  0.497027
9.09099  0.791945
9.16701  1.3201
9.24302  4.72189
9.31903  10.5193
9.39505  25.5657
9.47106  71.3624
9.54707  195.124
9.62308  295.033
9.6991  247.49
9.77511  180.75
9.85112  127.959
9.92714  96.6238
10.0031  80.6401
10.0792  65.6952
10.1552  46.2701
10.2312  28.9691
10.3072  16.4152
10.3832  7.87558
10.4592  2.90997
10.5352  -0.720429
10.6113  -1.05914
10.6873  1.18787
10.7633  4.77424
10.8393  4.88816
10.9153  3.65138
10.9913  1.71402
11.0673  0.168076
11.1433  1.63793
11.2194  2.88204
11.2954  2.4344
11.3714  1.33657
11.4474  2.43205
11.5234  2.14931
11.5994  2.05215
11.6754  1.3917
11.7515  0.319878
11.8275  -0.465308
11.9035  -0.26754
11.9795  -0.18517
12.0555  0.606222
12.1315  3.8882
12.2075  9.42126
12.2835  20.2539
12.3596  46.746
12.4356  118.657
12.5116  286.202
12.5876  476.095
12.6636  464.516
12.7396  299.578
12.8156  133.76
12.8916  56.8184
12.9677  31.9939
13.0437  21.7228
13.1197  15.6432
13.1957  11.9211
13.2717  7.68562
13.3477  5.06398
13.4237  2.48125
13.4998  2.78297
13.5758  2.65503
13.6518  3.22787
13.7278  2.69851
13.8038  3.11693
13.8798  1.48687
13.9558  0.612175
14.0318  -0.402203
14.1079  -0.00582995
14.1839  -0.267774
14.2599  0.854644
14.3359  3.0011
14.4119  4.80857
14.4879  6.45656
14.5639  6.89022
14.6399  6.31028
14.716  5.01096
14.792  2.67822
14.868  0.851566
14.944  0.978522
15.02  -0.0393704
15.096  0.0288393
15.172  0.526816
15.2481  -0.277669
15.3241  0.238105
15.4001  0.517265
15.4761  0.552313
15.5521  0.81382
15.6281  0.590421
15.7041  0.844275
15.7801  0.27989
15.8562  0.381858
15.9322  0.423484
16.0082  0.390045
16.0842  -0.198341
16.1602  0.658612
16.2362  0.998811
16.3122  2.61325
16.3882  5.38063
16.4643  10.5943
16.5403  19.1916
16.6163  29.0688
16.6923  36.0498
16.7683  36.4521
16.8443  32.8369
16.9203  28.2872
16.9964  24.3771
17.0724  19.9284
17.1484  16.4201
17.2244  13.3409
17.3004  11.7566
17.3764  6.87547
17.4524  4.73021
17.5284  2.89302
17.6045  2.20117
17.6805  2.48427
17.7565  2.39931
17.8325  2.58373
17.9085  2.40448
17.9845  2.87334
18.0605  2.56746
18.1365  3.80842
18.2126  5.55976
18.2886  8.0178
18.3646  12.2517
18.4406  20.0819
18.5166  29.1519
18.5926  37.4321
18.6686  40.5155
18.7447  36.7839
18.8207  27.1783
18.8967  16.0942
18.9727  7.81293
19.0487  3.16896
19.1247  1.57092
19.2007  0.806141
19.2767  0.328229
19.3528  -0.112026
19.4288  -0.0528948
19.5048  -0.148624
19.5808  0.587677
19.6568  0.133141
19.7328  0.283983
19.8088  0.254075
19.8848  0.0546341
19.9609  0.548708
20.0369  0.269094
20.1129  0.354317
20.1889  -0.0813758
20.2649  -0.131794
20.3409  0.507857
20.4169  0.249981
20.493  0.18658
20.569  0.272213
20.645  0.640712
20.721  0.884021
20.797  1.4324
20.873  1.18892
20.949  1.46712
21.025  1.44656
21.1011  1.13629
21.1771  0.868138
21.2531  0.90611
21.3291  0.241641
21.4051  0.0672914
21.4811  0.0258758
21.5571  0.182923
21.6331  -0.0150531
21.7092  0.325286
21.7852  0.142294
21.8612  -0.209574
21.9372  0.175309
22.0132  -0.234866
22.0322  0.146763