File: data/processed/Run2_XRD/22_ReMoB2_875psi_noRuby_S_P1_C1_D1w_139.dat
2.93393  0.512281
3.00995  0.37458
3.08596  0.800999
3.16197  0.628341
3.23799  1.00366
3.314  1.13879
3.39001  1.92576
3.46603  2.16075
3.54204  4.98151
3.61805  14.2832
3.69407  8.30834
3.77008  2.25962
3.84609  0.874416
3.9221  0.916138
3.99812  0.17505
4.07413  0.668269
4.15014  0.68389
4.22616  0.612132
4.30217  -0.0110834
4.37818  0.793462
4.4542  0.753825
4.53021  0.979362
4.60622  0.810425
4.68224  1.98413
4.75825  0.958935
4.83426  0.795173
4.91027  1.678
4.98629  1.79177
5.0623  0.0375181
5.13831  1.35394
5.21433  0.6621
5.29034  1.07999
5.36635  1.51698
5.44237  1.23809
5.51838  0.468188
5.59439  1.3522
5.67041  0.96396
5.74642  0.358582
5.82243  0.302642
5.89844  0.589081
5.97446  2.68566
6.05047  1.10511
6.12648  0.86855
6.2025  0.463963
6.27851  0.871564
6.35452  0.02088
6.43054  0.25983
6.50655  -0.0609617
6.58256  1.9823
6.65857  5.56336
6.73459  1.97611
6.8106  0.459288
6.88661  0.846358
6.96263  3.89395
7.03864  11.1217
7.11465  16.1795
7.19067  35.7933
7.26668  65.0681
7.34269  45.5728
7.41871  22.757
7.49472  12.6218
7.57073  7.70732
7.64674  5.81007
7.72276  4.34574
7.79877  3.98525
7.87478  2.73308
7.9508  1.45146
8.02681  1.25038
8.10282  1.02767
8.17884  0.421063
8.25485  -0.195314
8.33086  0.574865
8.40688  0.433481
8.48289  0.48034
8.5589  0.923248
8.63491  -0.278238
8.71093  -0.263572
8.78694  0.0189142
8.86295  -0.0666865
8.93897  -0.152478
9.01498  -0.0983532
9.09099  0.64522
9.16701  1.3998
9.24302  3.09355
9.31903  8.21838
9.39505  19.3456
9.47106  49.6308
9.54707  141.569
9.62308  254.282
9.6991  246.496
9.77511  197.825
9.85112  159.762
9.92714  148.932
10.0031  156.702
10.0792  136.705
10.1552  92.5103
10.2312  52.553
10.3072  25.1222
10.3832  10.3365
10.4592  2.94219
10.5352  -0.261276
10.6113  -0.92826
10.6873  -0.84241
10.7633  0.571573
10.8393  2.26789
10.9153  3.61819
10.9913  3.43283
11.0673  1.91552
11.1433  2.57817
11.2194  2.09348
11.2954  3.10215
11.3714  4.40879
11.4474  6.28201
11.5234  7.00519
11.5994  5.81663
11.6754  4.72863
11.7515  2.03529
11.8275  0.136888
11.9035  -0.0707795
11.9795  -0.932461
12.0555  -0.374018
12.1315  2.14689
12.2075  7.04047
12.2835  15.3097
12.3596  37.5859
12.4356  99.4487
12.5116  241.55
12.5876  404.33
12.6636  402.559
12.7396  273.35
12.8156  141.031
12.8916  68.2647
12.9677  38.0889
13.0437  26.2965
13.1197  20.0302
13.1957  15.6611
13.2717  11.0717
13.3477  8.69902
13.4237  6.83182
13.4998  6.39945
13.5758  6.51879
13.6518  6.53168
13.7278  6.55157
13.8038  4.7397
13.8798  3.78268
13.9558  1.94401
14.0318  0.679881
14.1079  -0.394304
14.1839  -0.566811
14.2599  -0.574069
14.3359  1.86241
14.4119  4.28715
14.4879  7.79642
14.5639  11.5936
14.6399  11.941
14.716  5.99867
14.792  2.62174
14.868  1.80373
14.944  0.781002
15.02  -0.388271
15.096  0.259898
15.172  0.0370824
15.2481  0.667548
15.3241  2.87075
15.4001  -0.0539146
15.4761  0.882857
15.5521  0.522286
15.6281  0.648972
15.7041  1.23617
15.7801  0.671936
15.8562  0.20827
15.9322  -0.0100923
16.0082  0.142344
16.0842  -0.00698447
16.1602  0.371024
16.2362  0.978749
16.3122  1.37961
16.3882  3.2286
16.4643  5.23204
16.5403  8.96167
16.6163  12.8824
16.6923  16.3962
16.7683  19.204
16.8443  19.289
16.9203  19.1618
16.9964  18.3869
17.0724  17.5097
17.1484  15.3239
17.2244  16.242
17.3004  14.8772
17.3764  11.771
17.4524  7.4065
17.5284  4.68339
17.6045  3.1102
17.6805  2.39784
17.7565  2.47653
17.8325  2.49417
17.9085  2.6281
17.9845  3.03254
18.0605  3.59827
18.1365  4.09696
18.2126  4.97417
18.2886  7.21321
18.3646  10.7565
18.4406  16.6901
18.5166  25.0431
18.5926  33.0772
18.6686  36.2872
18.7447  35.6968
18.8207  32.5496
18.8967  22.9135
18.9727  11.8991
19.0487  5.38845
19.1247  2.62127
19.2007  1.15521
19.2767  0.637883
19.3528  -0.140073
19.4288  0.288827
19.5048  -0.211383
19.5808  0.269083
19.6568  0.360705
19.7328  0.153273
19.8088  0.118954
19.8848  0.140639
19.9609  0.635071
20.0369  1.0175
20.1129  0.818075
20.1889  0.678331
20.2649  0.172729
20.3409  0.20597
20.4169  0.311425
20.493  -0.12074
20.569  0.370192
20.645  0.558785
20.721  1.08545
20.797  1.44705
20.873  1.51486
20.949  1.77322
21.025  1.64753
21.1011  2.034
21.1771  1.71043
21.2531  1.59453
21.3291  0.0981435
21.4051  0.182967
21.4811  -0.044273
21.5571  0.292907
21.6331  -0.0513636
21.7092  0.229692
21.7852  0.119182
21.8612  -0.276022
21.9372  0.306168
22.0132  -0.232409
22.0322  0.147295