File: data/processed/Run2_XRD/23_ReMoB2_910psi_noRuby_S_P1_C1_D1w_145.dat
2.93393  0.393879
3.00995  1.35956
3.08596  0.397648
3.16197  1.11034
3.23799  2.202
3.314  0.796144
3.39001  1.80186
3.46603  1.0615
3.54204  3.91268
3.61805  12.2988
3.69407  6.52962
3.77008  2.26431
3.84609  1.24568
3.9221  0.75386
3.99812  0.940939
4.07413  0.639562
4.15014  1.0014
4.22616  1.40482
4.30217  0.803243
4.37818  0.281743
4.4542  -0.227861
4.53021  1.10871
4.60622  0.295117
4.68224  1.1155
4.75825  1.14146
4.83426  1.10183
4.91027  1.35202
4.98629  0.209581
5.0623  0.417512
5.13831  -0.0612329
5.21433  1.08845
5.29034  0.386743
5.36635  0.7476
5.44237  0.213346
5.51838  0.117904
5.59439  0.304213
5.67041  1.09214
5.74642  -0.0773366
5.82243  0.137643
5.89844  0.676186
5.97446  1.85992
6.05047  2.09887
6.12648  0.818702
6.2025  -0.1091
6.27851  0.42887
6.35452  0.0770984
6.43054  0.962134
6.50655  0.430464
6.58256  1.38034
6.65857  5.54912
6.73459  1.85432
6.8106  0.0477813
6.88661  0.373354
6.96263  2.2608
7.03864  7.38621
7.11465  12.6728
7.19067  25.8952
7.26668  53.3903
7.34269  39.0077
7.41871  18.6749
7.49472  10.5972
7.57073  6.38764
7.64674  5.44783
7.72276  3.82925
7.79877  2.29985
7.87478  2.26056
7.9508  0.907779
8.02681  0.68138
8.10282  0.233079
8.17884  0.284462
8.25485  0.0808291
8.33086  0.0883666
8.40688  0.842196
8.48289  0.296601
8.5589  0.790166
8.63491  -0.446507
8.71093  0.231776
8.78694  -0.386613
8.86295  0.328462
8.93897  -0.0591112
9.01498  -0.0707037
9.09099  0.389422
9.16701  1.40147
9.24302  3.08155
9.31903  7.91539
9.39505  18.5947
9.47106  47.256
9.54707  133.495
9.62308  274.138
9.6991  272.62
9.77511  200.403
9.85112  143.531
9.92714  106.153
10.0031  86.8978
10.0792  75.8817
10.1552  56.8302
10.2312  37.3107
10.3072  20.7872
10.3832  10.3861
10.4592  3.80995
10.5352  0.470528
10.6113  -0.851646
10.6873  -0.705021
10.7633  2.12139
10.8393  3.65905
10.9153  4.51695
10.9913  2.23128
11.0673  0.231034
11.1433  0.795325
11.2194  1.41809
11.2954  1.47988
11.3714  1.81474
11.4474  2.88758
11.5234  2.54276
11.5994  3.22548
11.6754  1.88434
11.7515  0.545965
11.8275  -0.166811
11.9035  -0.49416
11.9795  0.0191257
12.0555  0.363264
12.1315  2.13757
12.2075  5.76527
12.2835  12.7678
12.3596  30.5936
12.4356  73.8794
12.5116  190.29
12.5876  400.687
12.6636  506.302
12.7396  399.275
12.8156  214.69
12.8916  89.7441
12.9677  43.1613
13.0437  25.9827
13.1197  18.2889
13.1957  13.3854
13.2717  9.84911
13.3477  6.90766
13.4237  4.64502
13.4998  2.96807
13.5758  2.99662
13.6518  3.57528
13.7278  3.26857
13.8038  3.40454
13.8798  2.09889
13.9558  1.37783
14.0318  -0.214866
14.1079  -0.350709
14.1839  -0.473126
14.2599  -0.155877
14.3359  1.51442
14.4119  3.01682
14.4879  5.18983
14.5639  7.09731
14.6399  6.95602
14.716  5.47761
14.792  2.66604
14.868  1.1851
14.944  0.993262
15.02  -0.264292
15.096  0.207346
15.172  -0.323625
15.2481  0.452426
15.3241  0.786477
15.4001  0.198182
15.4761  0.256859
15.5521  0.777462
15.6281  0.815873
15.7041  1.0281
15.7801  0.815661
15.8562  0.34558
15.9322  0.266798
16.0082  -0.204203
16.0842  -0.0395182
16.1602  0.482624
16.2362  0.445582
16.3122  1.78232
16.3882  3.59189
16.4643  6.64269
16.5403  11.8282
16.6163  20.9764
16.6923  28.6357
16.7683  33.1778
16.8443  32.5991
16.9203  29.4371
16.9964  25.9505
17.0724  22.337
17.1484  18.2939
17.2244  15.2354
17.3004  13.5208
17.3764  9.94867
17.4524  6.93206
17.5284  4.36346
17.6045  2.49566
17.6805  2.19585
17.7565  2.00967
17.8325  1.84784
17.9085  2.25448
17.9845  2.22194
18.0605  2.4912
18.1365  2.4973
18.2126  3.97081
18.2886  5.13201
18.3646  7.59118
18.4406  12.5158
18.5166  20.1408
18.5926  28.7291
18.6686  35.2645
18.7447  36.611
18.8207  32.6718
18.8967  24.7232
18.9727  14.3227
19.0487  6.30244
19.1247  3.01739
19.2007  1.94032
19.2767  0.802381
19.3528  0.224346
19.4288  0.0237843
19.5048  -0.14754
19.5808  0.150671
19.6568  0.320384
19.7328  0.486989
19.8088  0.342965
19.8848  -0.0311167
19.9609  0.37238
20.0369  0.431535
20.1129  -0.0568974
20.1889  -0.0693826
20.2649  0.301234
20.3409  0.154589
20.4169  -0.156861
20.493  0.154068
20.569  0.17761
20.645  0.305543
20.721  0.705425
20.797  0.948053
20.873  1.31485
20.949  1.54533
21.025  1.92092
21.1011  1.60387
21.1771  1.51851
21.2531  1.26026
21.3291  0.586361
21.4051  -0.116031
21.4811  0.128418
21.5571  0.100666
21.6331  0.0632885
21.7092  0.491694
21.7852  -0.0877109
21.8612  0.0321702
21.9372  0.0449813
22.0132  -0.172033
22.0322  0.076319