File: data/processed/Run2_XRD/24_ReMoB2_950psi_noRuby_S_P1_C1_D1w_151.dat
2.93393  0.491961
3.00995  1.67487
3.08596  1.17016
3.16197  1.66672
3.23799  1.13439
3.314  1.74022
3.39001  2.09471
3.46603  1.71954
3.54204  4.28562
3.61805  12.1553
3.69407  6.57739
3.77008  3.36052
3.84609  1.36825
3.9221  1.45192
3.99812  2.25772
4.07413  1.20965
4.15014  0.34371
4.22616  1.35345
4.30217  0.997129
4.37818  1.65717
4.4542  0.318902
4.53021  0.858578
4.60622  -0.011288
4.68224  1.66644
4.75825  0.463334
4.83426  0.0380038
4.91027  0.645206
4.98629  1.72176
5.0623  0.797374
5.13831  0.923324
5.21433  0.254864
5.29034  0.639921
5.36635  0.223825
5.44237  0.980079
5.51838  0.757102
5.59439  0.295444
5.67041  0.803477
5.74642  0.208885
5.82243  0.079913
5.89844  0.0159614
5.97446  1.78905
6.05047  1.79917
6.12648  1.28501
6.2025  0.232319
6.27851  0.919329
6.35452  0.174965
6.43054  0.706719
6.50655  -0.159743
6.58256  0.575374
6.65857  5.96083
6.73459  2.52985
6.8106  0.235103
6.88661  0.681138
6.96263  0.948113
7.03864  6.97542
7.11465  11.7416
7.19067  20.749
7.26668  46.7194
7.34269  40.0609
7.41871  20.3535
7.49472  10.99
7.57073  7.61741
7.64674  6.30288
7.72276  5.62558
7.79877  5.35561
7.87478  3.95333
7.9508  2.66994
8.02681  0.926166
8.10282  0.478599
8.17884  0.18826
8.25485  0.363503
8.33086  0.638031
8.40688  -0.14923
8.48289  0.984064
8.5589  0.248237
8.63491  -0.297884
8.71093  -0.00614239
8.78694  -0.152451
8.86295  0.0165455
8.93897  0.0939114
9.01498  0.170394
9.09099  0.248304
9.16701  0.652152
9.24302  2.36257
9.31903  5.86846
9.39505  14.7169
9.47106  35.7383
9.54707  101.967
9.62308  247.141
9.6991  287.659
9.77511  222.331
9.85112  160.343
9.92714  117.396
10.0031  92.5323
10.0792  80.1355
10.1552  64.0444
10.2312  42.277
10.3072  24.7614
10.3832  13.2148
10.4592  5.47175
10.5352  0.920779
10.6113  -0.38429
10.6873  -0.770123
10.7633  2.23263
10.8393  4.59074
10.9153  4.65656
10.9913  3.07574
11.0673  0.270256
11.1433  1.09255
11.2194  1.08283
11.2954  2.16583
11.3714  1.96226
11.4474  2.80377
11.5234  2.43945
11.5994  2.40933
11.6754  1.9431
11.7515  1.71065
11.8275  -0.00820126
11.9035  -0.407431
11.9795  -0.523711
12.0555  0.0766661
12.1315  1.2553
12.2075  5.00078
12.2835  11.1449
12.3596  23.4236
12.4356  55.0223
12.5116  143.58
12.5876  333.001
12.6636  505.155
12.7396  467.016
12.8156  289.171
12.8916  128.911
12.9677  55.9858
13.0437  31.9575
13.1197  21.4757
13.1957  15.219
13.2717  11.0417
13.3477  8.17671
13.4237  4.93891
13.4998  2.60004
13.5758  2.48833
13.6518  1.90582
13.7278  2.23453
13.8038  3.34947
13.8798  2.23922
13.9558  1.21459
14.0318  0.100213
14.1079  -0.544066
14.1839  -0.699501
14.2599  0.0374793
14.3359  1.35265
14.4119  3.64472
14.4879  4.9668
14.5639  7.49131
14.6399  8.07215
14.716  6.66847
14.792  3.36996
14.868  1.82686
14.944  1.48791
15.02  0.63089
15.096  0.0186915
15.172  -0.468171
15.2481  0.21457
15.3241  0.430718
15.4001  0.200729
15.4761  0.964892
15.5521  0.881888
15.6281  0.855409
15.7041  1.40784
15.7801  1.0212
15.8562  0.910188
15.9322  0.660353
16.0082  0.295515
16.0842  -0.239209
16.1602  0.344843
16.2362  0.111762
16.3122  1.34703
16.3882  2.58415
16.4643  4.70269
16.5403  8.50263
16.6163  15.0227
16.6923  22.8253
16.7683  29.0755
16.8443  31.1478
16.9203  29.5861
16.9964  26.8904
17.0724  23.7469
17.1484  20.5042
17.2244  16.7516
17.3004  14.5147
17.3764  11.7474
17.4524  8.82498
17.5284  5.97403
17.6045  3.68162
17.6805  3.14561
17.7565  2.0552
17.8325  1.71879
17.9085  2.39096
17.9845  2.70258
18.0605  2.70546
18.1365  2.65458
18.2126  3.27706
18.2886  4.21701
18.3646  6.18765
18.4406  9.51502
18.5166  15.54
18.5926  23.6761
18.6686  30.6629
18.7447  34.1337
18.8207  33.3127
18.8967  27.5542
18.9727  18.8614
19.0487  9.62386
19.1247  4.10918
19.2007  1.96957
19.2767  2.36409
19.3528  0.706245
19.4288  -0.0927825
19.5048  -0.368249
19.5808  -0.0324178
19.6568  0.520621
19.7328  0.213196
19.8088  0.302275
19.8848  -0.0243441
19.9609  0.0955818
20.0369  0.197369
20.1129  0.17271
20.1889  0.121176
20.2649  -0.0618504
20.3409  0.0900754
20.4169  0.0671765
20.493  0.18916
20.569  0.383296
20.645  0.224744
20.721  0.274816
20.797  0.560062
20.873  1.44829
20.949  1.69124
21.025  1.44214
21.1011  1.61194
21.1771  1.85717
21.2531  1.70697
21.3291  0.502993
21.4051  0.38443
21.4811  0.087265
21.5571  -0.055281
21.6331  0.12782
21.7092  0.473574
21.7852  -0.0012306
21.8612  -0.0396167
21.9372  0.159796
22.0132  -0.115076
22.0322  0.0803237