File: data/processed/Run2_XRD/25_ReMoB2_990psi_noRuby_S_P1_C1_D1w_157.dat
2.93393  0.484003
3.00995  1.31103
3.08596  1.39934
3.16197  1.67179
3.23799  0.731879
3.314  1.75613
3.39001  0.938853
3.46603  2.54925
3.54204  4.02702
3.61805  11.938
3.69407  9.28549
3.77008  3.07925
3.84609  1.60479
3.9221  0.700157
3.99812  1.4517
4.07413  0.355356
4.15014  0.288006
4.22616  0.0823142
4.30217  1.03531
4.37818  0.868507
4.4542  0.943687
4.53021  -0.00750848
4.60622  0.495649
4.68224  -0.10194
4.75825  1.03266
4.83426  1.08724
4.91027  1.26355
4.98629  0.789288
5.0623  1.12557
5.13831  0.724495
5.21433  1.0795
5.29034  0.170148
5.36635  0.871293
5.44237  1.34559
5.51838  0.1318
5.59439  0.623117
5.67041  0.813865
5.74642  0.164704
5.82243  0.507868
5.89844  0.510915
5.97446  1.00511
6.05047  1.60847
6.12648  0.711839
6.2025  0.284035
6.27851  0.525955
6.35452  0.316812
6.43054  0.208672
6.50655  -0.0548276
6.58256  0.950277
6.65857  5.6182
6.73459  3.17397
6.8106  0.0657518
6.88661  0.600645
6.96263  1.0648
7.03864  6.68309
7.11465  13.3073
7.19067  21.3648
7.26668  50.6041
7.34269  52.2555
7.41871  29.3249
7.49472  16.2125
7.57073  11.3308
7.64674  8.87192
7.72276  7.73499
7.79877  6.99906
7.87478  6.5443
7.9508  4.58756
8.02681  2.41483
8.10282  0.952414
8.17884  0.47784
8.25485  0.456245
8.33086  0.306585
8.40688  0.341973
8.48289  0.700461
8.5589  0.0940934
8.63491  -0.332693
8.71093  0.170103
8.78694  0.238325
8.86295  -0.00843537
8.93897  -0.122827
9.01498  0.649718
9.09099  0.254177
9.16701  0.694058
9.24302  1.28069
9.31903  5.44277
9.39505  11.1743
9.47106  26.8641
9.54707  73.0168
9.62308  193.327
9.6991  275.964
9.77511  238.763
9.85112  188.355
9.92714  152.141
10.0031  134.794
10.0792  126.236
10.1552  102.303
10.2312  68.4981
10.3072  37.5986
10.3832  18.8243
10.4592  7.78002
10.5352  1.93566
10.6113  -0.390894
10.6873  -0.985237
10.7633  -0.535414
10.8393  1.46734
10.9153  3.27391
10.9913  3.6651
11.0673  1.77595
11.1433  1.34428
11.2194  1.78547
11.2954  1.94928
11.3714  2.69293
11.4474  2.68263
11.5234  4.14619
11.5994  4.69421
11.6754  4.47496
11.7515  2.91408
11.8275  1.47687
11.9035  -0.00495102
11.9795  -1.14984
12.0555  0.384111
12.1315  0.679714
12.2075  3.75163
12.2835  7.45827
12.3596  17.7751
12.4356  41.7064
12.5116  108.717
12.5876  258.228
12.6636  430.699
12.7396  437.598
12.8156  299.869
12.8916  151.787
12.9677  70.8106
13.0437  39.7439
13.1197  26.8167
13.1957  19.9794
13.2717  14.6654
13.3477  9.81721
13.4237  6.77692
13.4998  4.7539
13.5758  3.95786
13.6518  3.7396
13.7278  3.53974
13.8038  3.2143
13.8798  2.8764
13.9558  1.66951
14.0318  0.774234
14.1079  -0.48434
14.1839  -0.187335
14.2599  -0.411469
14.3359  0.960133
14.4119  2.76267
14.4879  4.71243
14.5639  8.34604
14.6399  12.4674
14.716  10.5412
14.792  5.6913
14.868  2.65008
14.944  1.91842
15.02  0.931724
15.096  0.332038
15.172  -0.110957
15.2481  0.156461
15.3241  0.596596
15.4001  0.185355
15.4761  0.739758
15.5521  0.450481
15.6281  0.77749
15.7041  1.35219
15.7801  1.08367
15.8562  0.838989
15.9322  1.17105
16.0082  0.552202
16.0842  0.299859
16.1602  0.226605
16.2362  -0.0133524
16.3122  0.117171
16.3882  1.81023
16.4643  2.83583
16.5403  5.21174
16.6163  8.55237
16.6923  12.9104
16.7683  16.8273
16.8443  19.9229
16.9203  20.0011
16.9964  20.1422
17.0724  19.6714
17.1484  17.1709
17.2244  16.7864
17.3004  15.9912
17.3764  15.0583
17.4524  12.3119
17.5284  8.44493
17.6045  5.61968
17.6805  3.74492
17.7565  2.9631
17.8325  2.20426
17.9085  2.58125
17.9845  2.91285
18.0605  2.8801
18.1365  2.64578
18.2126  3.47533
18.2886  4.0102
18.3646  5.75312
18.4406  8.10429
18.5166  12.1214
18.5926  19.9146
18.6686  27.7289
18.7447  32.6341
18.8207  32.5984
18.8967  30.4229
18.9727  23.2551
19.0487  13.5332
19.1247  6.23023
19.2007  2.57693
19.2767  1.28914
19.3528  0.331468
19.4288  0.194869
19.5048  -0.193233
19.5808  -0.244191
19.6568  0.218288
19.7328  0.086441
19.8088  0.250348
19.8848  0.129692
19.9609  0.415412
20.0369  0.391037
20.1129  0.554325
20.1889  1.12812
20.2649  0.529743
20.3409  0.388633
20.4169  0.169156
20.493  -0.193512
20.569  0.25744
20.645  0.100878
20.721  0.423486
20.797  0.771105
20.873  1.19979
20.949  1.0478
21.025  1.43361
21.1011  1.84032
21.1771  1.7128
21.2531  2.1694
21.3291  0.838088
21.4051  0.630608
21.4811  0.436357
21.5571  -0.193312
21.6331  0.258302
21.7092  0.353988
21.7852  -0.0333396
21.8612  -0.259229
21.9372  0.170779
22.0132  -0.00556407
22.0322  0.0471778