File: data/processed/Run2_XRD/27_ReMoB2_1080psi_noRuby_S_P1_C1_D1w_169.dat
2.93393  0.490529
3.00995  1.24573
3.08596  1.11059
3.16197  0.0518621
3.23799  1.23275
3.314  1.39731
3.39001  1.32742
3.46603  0.747023
3.54204  1.70092
3.61805  9.26838
3.69407  7.42917
3.77008  3.57411
3.84609  0.985835
3.9221  0.0423312
3.99812  1.43137
4.07413  1.45667
4.15014  0.359017
4.22616  0.185109
4.30217  0.00117219
4.37818  1.32298
4.4542  0.672825
4.53021  0.162554
4.60622  0.472891
4.68224  1.11984
4.75825  0.328985
4.83426  0.430019
4.91027  0.905376
4.98629  0.533285
5.0623  -0.14579
5.13831  0.795433
5.21433  -0.159146
5.29034  0.334445
5.36635  0.435888
5.44237  0.637472
5.51838  1.49475
5.59439  0.646009
5.67041  -0.0155158
5.74642  -0.0714216
5.82243  0.657844
5.89844  0.16472
5.97446  1.61117
6.05047  1.30203
6.12648  1.43412
6.2025  0.325126
6.27851  0.657041
6.35452  0.593923
6.43054  -0.0453479
6.50655  0.296449
6.58256  0.971508
6.65857  4.10572
6.73459  4.77748
6.8106  0.570675
6.88661  -0.243856
6.96263  0.376332
7.03864  3.40715
7.11465  10.47
7.19067  16.3732
7.26668  33.6926
7.34269  44.2704
7.41871  25.3331
7.49472  14.1428
7.57073  9.26347
7.64674  6.28146
7.72276  5.75039
7.79877  4.99598
7.87478  4.21569
7.9508  3.12261
8.02681  2.68591
8.10282  1.36514
8.17884  0.44348
8.25485  0.222142
8.33086  0.0133072
8.40688  -0.0318019
8.48289  0.248419
8.5589  0.727754
8.63491  -0.0634392
8.71093  -0.0851534
8.78694  -0.0372838
8.86295  -0.181125
8.93897  -0.452971
9.01498  0.23879
9.09099  0.00318335
9.16701  0.414889
9.24302  1.19571
9.31903  3.19142
9.39505  8.42915
9.47106  19.7049
9.54707  51.3974
9.62308  148.365
9.6991  284.734
9.77511  274.015
9.85112  204.164
9.92714  152.051
10.0031  105.186
10.0792  79.5325
10.1552  64.8592
10.2312  49.9783
10.3072  33.4172
10.3832  20.7892
10.4592  11.0047
10.5352  4.6735
10.6113  0.651566
10.6873  -0.94412
10.7633  -0.293228
10.8393  3.92877
10.9153  6.96558
10.9913  5.07015
11.0673  1.78402
11.1433  0.508811
11.2194  0.467572
11.2954  1.63449
11.3714  1.292
11.4474  1.6152
11.5234  1.59987
11.5994  1.23366
11.6754  0.896047
11.7515  0.931624
11.8275  0.980865
11.9035  -0.435846
11.9795  -0.472451
12.0555  -0.204763
12.1315  0.0959352
12.2075  1.87915
12.2835  5.55003
12.3596  11.9797
12.4356  25.65
12.5116  61.7501
12.5876  155.753
12.6636  356.254
12.7396  525.62
12.8156  478.365
12.8916  293.237
12.9677  126.437
13.0437  54.9575
13.1197  30.963
13.1957  20.1706
13.2717  13.0954
13.3477  9.10445
13.4237  5.3707
13.4998  3.34058
13.5758  1.47231
13.6518  0.94917
13.7278  0.77039
13.8038  1.57325
13.8798  1.31277
13.9558  1.18487
14.0318  0.547997
14.1079  -0.0465887
14.1839  -0.230745
14.2599  -0.452219
14.3359  0.339792
14.4119  1.28565
14.4879  3.61668
14.5639  5.83052
14.6399  7.00716
14.716  7.06175
14.792  5.13122
14.868  3.60398
14.944  2.34142
15.02  0.594923
15.096  0.410628
15.172  0.0571215
15.2481  0.0424594
15.3241  0.0635823
15.4001  -0.0201974
15.4761  0.233625
15.5521  0.463526
15.6281  0.775927
15.7041  0.596907
15.7801  0.690008
15.8562  0.854276
15.9322  0.914715
16.0082  0.690333
16.0842  0.391073
16.1602  0.0961769
16.2362  0.0242471
16.3122  0.309447
16.3882  0.591747
16.4643  2.36971
16.5403  4.48918
16.6163  8.39847
16.6923  15.2457
16.7683  24.1556
16.8443  32.6047
16.9203  34.8492
16.9964  32.0815
17.0724  29.3114
17.1484  24.8783
17.2244  21.7208
17.3004  17.3699
17.3764  13.8033
17.4524  10.8118
17.5284  8.26088
17.6045  5.96405
17.6805  4.56193
17.7565  2.79333
17.8325  2.41702
17.9085  2.52726
17.9845  2.37987
18.0605  2.61821
18.1365  2.1764
18.2126  3.13101
18.2886  2.93491
18.3646  2.94619
18.4406  4.11859
18.5166  6.11103
18.5926  10.5245
18.6686  18.4353
18.7447  25.5501
18.8207  29.6321
18.8967  29.4362
18.9727  24.8676
19.0487  18.2781
19.1247  10.2721
19.2007  3.89033
19.2767  1.58243
19.3528  1.45464
19.4288  0.46411
19.5048  0.0336418
19.5808  -0.459126
19.6568  0.0227443
19.7328  0.158836
19.8088  1.08343
19.8848  0.856374
19.9609  0.308626
20.0369  -0.078886
20.1129  0.00414524
20.1889  0.296187
20.2649  0.523796
20.3409  0.304175
20.4169  0.00779847
20.493  0.331501
20.569  0.0938265
20.645  0.308437
20.721  0.340722
20.797  0.439114
20.873  0.526751
20.949  0.98925
21.025  1.38932
21.1011  1.38619
21.1771  1.25455
21.2531  1.44458
21.3291  0.699902
21.4051  -0.055874
21.4811  0.376122
21.5571  0.185363
21.6331  -0.148763
21.7092  0.351867
21.7852  0.181156
21.8612  -0.219778
21.9372  -0.0749095
22.0132  0.0550728
22.0322  -0.0218614