File: data/processed/Run2_XRD/28_ReMoB2_1120psi_noRuby_S_P1_C1_D1w_175.dat
2.93393  0.542558
3.00995  0.588945
3.08596  0.873308
3.16197  -0.102141
3.23799  0.415441
3.314  1.27271
3.39001  0.994224
3.46603  0.645728
3.54204  2.02226
3.61805  5.00559
3.69407  9.16504
3.77008  2.63248
3.84609  0.373354
3.9221  1.34216
3.99812  1.20757
4.07413  0.477994
4.15014  0.659065
4.22616  0.449124
4.30217  0.0587033
4.37818  1.35784
4.4542  0.00045217
4.53021  0.185881
4.60622  0.00144086
4.68224  1.17146
4.75825  0.463258
4.83426  0.508988
4.91027  0.21717
4.98629  0.0814412
5.0623  -0.106278
5.13831  0.404618
5.21433  0.373002
5.29034  1.11138
5.36635  0.800223
5.44237  0.241427
5.51838  1.07219
5.59439  0.452722
5.67041  0.537024
5.74642  0.693511
5.82243  0.419887
5.89844  1.11419
5.97446  0.71235
6.05047  1.06477
6.12648  2.24867
6.2025  1.33647
6.27851  0.960805
6.35452  0.752881
6.43054  0.839776
6.50655  -0.0634503
6.58256  0.270046
6.65857  1.95061
6.73459  5.6585
6.8106  1.7883
6.88661  0.393957
6.96263  0.431917
7.03864  1.28607
7.11465  4.23496
7.19067  11.8379
7.26668  21.2898
7.34269  43.853
7.41871  37.4041
7.49472  20.04
7.57073  11.4644
7.64674  8.27357
7.72276  7.16136
7.79877  5.95991
7.87478  5.42066
7.9508  4.49233
8.02681  3.92695
8.10282  2.9106
8.17884  1.50023
8.25485  0.54282
8.33086  0.485182
8.40688  1.02146
8.48289  -0.206122
8.5589  0.642361
8.63491  1.25532
8.71093  0.447894
8.78694  0.598181
8.86295  0.579727
8.93897  0.174852
9.01498  -0.228923
9.09099  -0.0172702
9.16701  -0.0636161
9.24302  0.217433
9.31903  1.85431
9.39505  4.17152
9.47106  9.16702
9.54707  22.7982
9.62308  59.9814
9.6991  167.758
9.77511  295.408
9.85112  263.302
9.92714  196.514
10.0031  145.714
10.0792  102.901
10.1552  76.1006
10.2312  62.2423
10.3072  46.8918
10.3832  31.9264
10.4592  19.3169
10.5352  10.3285
10.6113  4.46772
10.6873  0.625325
10.7633  -0.936309
10.8393  0.329337
10.9153  4.13254
10.9913  7.04477
11.0673  4.14443
11.1433  1.79801
11.2194  -0.133172
11.2954  0.575225
11.3714  0.96903
11.4474  1.97892
11.5234  0.703819
11.5994  0.440586
11.6754  1.40449
11.7515  0.705823
11.8275  0.58299
11.9035  0.976297
11.9795  -0.577861
12.0555  -0.608532
12.1315  0.00799534
12.2075  0.294907
12.2835  1.82856
12.3596  5.04364
12.4356  10.832
12.5116  24.17
12.5876  53.9311
12.6636  136.868
12.7396  323.07
12.8156  520.138
12.8916  506.828
12.9677  329.271
13.0437  147.042
13.1197  61.8082
13.1957  33.8702
13.2717  21.448
13.3477  14.7022
13.4237  9.17792
13.4998  6.74051
13.5758  3.28357
13.6518  1.67088
13.7278  0.938403
13.8038  1.19904
13.8798  1.42404
13.9558  1.21894
14.0318  0.877959
14.1079  0.61728
14.1839  0.0556951
14.2599  -0.538161
14.3359  -0.294085
14.4119  0.0688198
14.4879  2.05599
14.5639  3.83199
14.6399  5.96
14.716  6.98422
14.792  7.25178
14.868  5.77354
14.944  4.7721
15.02  2.68992
15.096  1.151
15.172  0.30438
15.2481  -0.0911337
15.3241  0.180269
15.4001  -0.100683
15.4761  0.256765
15.5521  0.488809
15.6281  0.30069
15.7041  0.850771
15.7801  0.434558
15.8562  0.124614
15.9322  1.09706
16.0082  0.975225
16.0842  0.622614
16.1602  0.407925
16.2362  -0.0412868
16.3122  0.144259
16.3882  0.631115
16.4643  0.628037
16.5403  1.70132
16.6163  3.38479
16.6923  6.32028
16.7683  11.9189
16.8443  20.555
16.9203  29.6883
16.9964  35.4663
17.0724  34.7529
17.1484  31.2957
17.2244  27.0869
17.3004  23.8612
17.3764  19.3039
17.4524  15.9225
17.5284  12.7212
17.6045  10.226
17.6805  8.05805
17.7565  5.23436
17.8325  4.03876
17.9085  3.24585
17.9845  2.61869
18.0605  2.82856
18.1365  2.76114
18.2126  2.54069
18.2886  2.60869
18.3646  1.81337
18.4406  1.73011
18.5166  1.73286
18.5926  2.41093
18.6686  5.11291
18.7447  9.78766
18.8207  16.8727
18.8967  21.9203
18.9727  24.8093
19.0487  24.3062
19.1247  19.6184
19.2007  13.3366
19.2767  6.90505
19.3528  2.14527
19.4288  0.407432
19.5048  0.462731
19.5808  0.0328908
19.6568  -0.491044
19.7328  -0.0908198
19.8088  0.134715
19.8848  0.111272
19.9609  0.856629
20.0369  0.955306
20.1129  0.423067
20.1889  -0.168483
20.2649  -0.0632215
20.3409  0.156614
20.4169  0.287135
20.493  0.104006
20.569  0.280991
20.645  0.16869
20.721  -0.0605948
20.797  -0.0367711
20.873  0.0599795
20.949  0.308496
21.025  1.13015
21.1011  0.443718
21.1771  0.727046
21.2531  1.25759
21.3291  0.724471
21.4051  0.17916
21.4811  0.0339417
21.5571  0.242087
21.6331  0.216675
21.7092  -0.129789
21.7852  0.360384
21.8612  -0.164018
21.9372  0.0399977
22.0132  -0.0664149
22.0322  0.0603457