File: data/processed/Run2_XRD/29_RuMoB2_915psi_noRuby_S_P1_C1_D1w_181.dat
2.93393  0.415315
3.00995  1.51221
3.08596  0.88244
3.16197  0.725818
3.23799  1.80765
3.314  2.0008
3.39001  0.568186
3.46603  0.899783
3.54204  1.80197
3.61805  4.81761
3.69407  6.8431
3.77008  3.20449
3.84609  0.451531
3.9221  1.0868
3.99812  0.846355
4.07413  0.48846
4.15014  0.791732
4.22616  1.11023
4.30217  -0.00360568
4.37818  0.962921
4.4542  0.281066
4.53021  0.50097
4.60622  0.35311
4.68224  -0.00898
4.75825  1.35563
4.83426  0.478555
4.91027  0.910315
4.98629  0.461479
5.0623  0.254456
5.13831  0.145335
5.21433  1.00434
5.29034  0.934021
5.36635  0.856924
5.44237  0.209889
5.51838  0.124513
5.59439  0.319102
5.67041  0.370372
5.74642  0.213566
5.82243  1.23042
5.89844  0.897208
5.97446  1.72086
6.05047  1.13586
6.12648  2.09589
6.2025  0.194786
6.27851  0.786712
6.35452  0.548647
6.43054  0.655872
6.50655  1.09718
6.58256  0.658445
6.65857  0.187151
6.73459  2.14102
6.8106  0.965405
6.88661  -0.337837
6.96263  0.394261
7.03864  0.915181
7.11465  3.06899
7.19067  6.99742
7.26668  16.0459
7.34269  34.8568
7.41871  29.4181
7.49472  16.6976
7.57073  12.829
7.64674  9.06578
7.72276  9.272
7.79877  8.32879
7.87478  7.31927
7.9508  5.49637
8.02681  2.91088
8.10282  1.38576
8.17884  1.18144
8.25485  1.07989
8.33086  0.327851
8.40688  0.701612
8.48289  -0.183736
8.5589  0.244952
8.63491  0.359162
8.71093  0.309733
8.78694  0.0668769
8.86295  -0.402094
8.93897  0.290213
9.01498  0.281549
9.09099  0.106979
9.16701  0.173934
9.24302  1.24788
9.31903  3.47363
9.39505  7.42766
9.47106  15.2588
9.54707  33.991
9.62308  84.6609
9.6991  225.912
9.77511  355.886
9.85112  280.577
9.92714  190.719
10.0031  129.349
10.0792  85.2479
10.1552  60.2175
10.2312  45.1407
10.3072  32.318
10.3832  21.516
10.4592  11.6827
10.5352  5.81422
10.6113  2.32945
10.6873  0.0835081
10.7633  -0.514222
10.8393  -0.59836
10.9153  1.62252
10.9913  1.76389
11.0673  1.29271
11.1433  0.505979
11.2194  0.36459
11.2954  -0.0191923
11.3714  0.470984
11.4474  1.50037
11.5234  0.673926
11.5994  0.749929
11.6754  0.76174
11.7515  1.21269
11.8275  0.502598
11.9035  -0.463857
11.9795  -0.126435
12.0555  -0.823796
12.1315  0.421989
12.2075  1.06702
12.2835  3.04005
12.3596  7.54277
12.4356  15.0721
12.5116  32.9151
12.5876  74.0891
12.6636  182.873
12.7396  404.723
12.8156  580.074
12.8916  488.646
12.9677  275.162
13.0437  114.42
13.1197  48.9871
13.1957  26.7691
13.2717  16.4322
13.3477  10.3456
13.4237  6.22062
13.4998  3.34463
13.5758  1.47807
13.6518  1.27229
13.7278  0.653415
13.8038  1.09237
13.8798  1.16324
13.9558  0.585688
14.0318  0.331959
14.1079  0.21382
14.1839  0.0351859
14.2599  -0.395602
14.3359  -0.125242
14.4119  0.0554353
14.4879  1.09687
14.5639  1.81779
14.6399  4.36171
14.716  5.92121
14.792  4.95806
14.868  3.60151
14.944  1.8795
15.02  1.08518
15.096  0.819341
15.172  0.30604
15.2481  -0.167961
15.3241  0.131729
15.4001  0.321705
15.4761  0.443839
15.5521  0.507245
15.6281  1.19447
15.7041  1.15341
15.7801  1.27243
15.8562  1.14779
15.9322  1.03479
16.0082  0.811738
16.0842  -0.00885401
16.1602  0.663836
16.2362  0.0471103
16.3122  0.0729317
16.3882  0.710295
16.4643  0.945215
16.5403  1.90614
16.6163  3.99579
16.6923  7.52426
16.7683  14.315
16.8443  23.7867
16.9203  33.8719
16.9964  39.1135
17.0724  37.4762
17.1484  32.7114
17.2244  28.8213
17.3004  24.2398
17.3764  19.4725
17.4524  14.9648
17.5284  11.6468
17.6045  9.30379
17.6805  7.00399
17.7565  5.12635
17.8325  3.52773
17.9085  2.57469
17.9845  1.97541
18.0605  1.54951
18.1365  1.75781
18.2126  1.74253
18.2886  1.90367
18.3646  1.58898
18.4406  1.39831
18.5166  1.91431
18.5926  3.99354
18.6686  8.5112
18.7447  16.1068
18.8207  23.8291
18.8967  28.7463
18.9727  29.3077
19.0487  24.567
19.1247  17.907
19.2007  10.616
19.2767  3.55925
19.3528  0.248995
19.4288  0.440698
19.5048  1.34108
19.5808  1.32222
19.6568  0.550004
19.7328  0.0930515
19.8088  -0.126011
19.8848  0.51847
19.9609  0.605749
20.0369  0.376343
20.1129  0.0160508
20.1889  0.212974
20.2649  -0.0295699
20.3409  0.711201
20.4169  -0.0977207
20.493  -0.0287702
20.569  0.0870869
20.645  -0.0500035
20.721  0.14214
20.797  -0.0846336
20.873  0.0618004
20.949  0.435497
21.025  0.363737
21.1011  0.75093
21.1771  0.952796
21.2531  0.506639
21.3291  0.472771
21.4051  0.301866
21.4811  -0.0591687
21.5571  0.407978
21.6331  -0.147111
21.7092  0.110321
21.7852  0.182622
21.8612  -0.119831
21.9372  0.166266
22.0132  -0.110273
22.0322  0.0636259