File: data/processed/Run2_XRD/2_ReMoB2_355bars_6p1GPa_S_P1_C1_D1w_019.dat
2.93393  0.747018
3.00995  -0.149987
3.08596  1.19358
3.16197  0.601465
3.23799  2.24893
3.314  3.34476
3.39001  15.6918
3.46603  11.7998
3.54204  2.70785
3.61805  1.5335
3.69407  1.77459
3.77008  0.219096
3.84609  1.33976
3.9221  0.896834
3.99812  1.18639
4.07413  1.14238
4.15014  1.11824
4.22616  0.198428
4.30217  0.430089
4.37818  0.00481597
4.4542  0.461687
4.53021  0.797943
4.60622  0.303385
4.68224  0.421063
4.75825  0.588903
4.83426  0.4579
4.91027  0.157374
4.98629  1.3588
5.0623  0.158425
5.13831  0.703056
5.21433  0.507022
5.29034  0.33905
5.36635  0.290355
5.44237  -0.00972975
5.51838  0.238911
5.59439  1.92948
5.67041  3.59823
5.74642  2.06914
5.82243  0.43017
5.89844  0.275747
5.97446  1.06849
6.05047  -0.117548
6.12648  0.646509
6.2025  3.50154
6.27851  15.0885
6.35452  5.40368
6.43054  8.68378
6.50655  13.054
6.58256  2.41359
6.65857  1.47291
6.73459  10.2912
6.8106  54.1569
6.88661  49.8388
6.96263  17.0871
7.03864  3.79472
7.11465  0.722157
7.19067  0.196087
7.26668  0.257919
7.34269  -0.177028
7.41871  0.0640353
7.49472  0.872312
7.57073  1.34466
7.64674  1.16755
7.72276  0.145513
7.79877  0.458006
7.87478  0.152602
7.9508  0.538575
8.02681  0.52187
8.10282  0.0743456
8.17884  0.00425244
8.25485  0.773399
8.33086  0.301067
8.40688  0.245733
8.48289  0.333419
8.5589  0.286878
8.63491  -0.161548
8.71093  0.0270641
8.78694  0.566049
8.86295  0.795822
8.93897  2.98703
9.01498  19.2713
9.09099  131.102
9.16701  474.787
9.24302  397.46
9.31903  280.859
9.39505  221.325
9.47106  104.56
9.54707  37.014
9.62308  10.8131
9.6991  3.26941
9.77511  0.228866
9.85112  -0.518522
9.92714  2.66723
10.0031  7.58672
10.0792  7.37931
10.1552  27.3887
10.2312  48.8578
10.3072  30.7794
10.3832  18.3234
10.4592  13.7217
10.5352  15.1844
10.6113  24.0908
10.6873  50.193
10.7633  66.6398
10.8393  44.8894
10.9153  21.3063
10.9913  7.42429
11.0673  3.74623
11.1433  4.817
11.2194  0.935474
11.2954  -0.00544265
11.3714  0.374867
11.4474  0.00186384
11.5234  -0.710777
11.5994  -0.238506
11.6754  0.833304
11.7515  2.80043
11.8275  5.66533
11.9035  9.43619
11.9795  24.2264
12.0555  92.5635
12.1315  155.734
12.2075  111.246
12.2835  57.1431
12.3596  31.4727
12.4356  23.5049
12.5116  21.4177
12.5876  22.4959
12.6636  24.22
12.7396  30.672
12.8156  53.8993
12.8916  68.1636
12.9677  56.9652
13.0437  30.8048
13.1197  10.5784
13.1957  2.8083
13.2717  -0.192228
13.3477  0.78328
13.4237  -0.195121
13.4998  0.0447426
13.5758  2.70799
13.6518  7.08725
13.7278  11.1217
13.8038  4.61604
13.8798  3.4858
13.9558  1.39145
14.0318  0.100612
14.1079  -0.22477
14.1839  -0.0710902
14.2599  0.492645
14.3359  0.401564
14.4119  0.574623
14.4879  0.538417
14.5639  0.785364
14.6399  0.0942539
14.716  0.773302
14.792  0.43807
14.868  0.185659
14.944  0.6054
15.02  0.927824
15.096  1.66563
15.172  1.92509
15.2481  2.74879
15.3241  4.11799
15.4001  11.166
15.4761  25.9681
15.5521  39.3561
15.6281  40.0872
15.7041  54.6275
15.7801  70.8529
15.8562  56.8834
15.9322  30.7796
16.0082  16.1413
16.0842  8.84167
16.1602  5.70623
16.2362  3.82856
16.3122  2.47176
16.3882  1.55761
16.4643  1.03824
16.5403  0.0816345
16.6163  0.347432
16.6923  1.03187
16.7683  0.732866
16.8443  0.843785
16.9203  1.75503
16.9964  5.11869
17.0724  15.7196
17.1484  56.8861
17.2244  75.066
17.3004  68.3985
17.3764  56.0477
17.4524  48.3897
17.5284  47.5586
17.6045  27.1179
17.6805  16.6558
17.7565  11.9102
17.8325  9.51277
17.9085  8.10089
17.9845  7.14893
18.0605  8.03801
18.1365  9.16634
18.2126  16.9629
18.2886  27.0532
18.3646  29.4795
18.4406  24.431
18.5166  13.8527
18.5926  4.64754
18.6686  0.160572
18.7447  4.68762
18.8207  11.3164
18.8967  13.8015
18.9727  12.4646
19.0487  8.67773
19.1247  5.06483
19.2007  6.88715
19.2767  3.18177
19.3528  0.60194
19.4288  -0.278067
19.5048  -0.296975
19.5808  0.0322665
19.6568  -0.00710055
19.7328  0.447948
19.8088  0.990588
19.8848  3.01098
19.9609  4.88527
20.0369  2.93415
20.1129  1.85795
20.1889  1.22392
20.2649  1.22404
20.3409  4.17988
20.4169  10.2116
20.493  11.827
20.569  7.15274
20.645  2.64062
20.721  1.03488
20.797  0.144282
20.873  0.398599
20.949  0.844353
21.025  2.8785
21.1011  2.03011
21.1771  0.296412
21.2531  0.29992
21.3291  -0.206043
21.4051  0.291533
21.4811  0.124044
21.5571  0.485959
21.6331  0.214809
21.7092  0.1313
21.7852  0.0119756
21.8612  0.000910935
21.9372  -0.249565
22.0132  0.258658
22.0322  -0.141057