File: data/processed/Run2_XRD/30_RuMoB2_470psi_noRuby_S_P1_C1_D1w_187.dat
2.93393  0.423237
3.00995  0.51739
3.08596  0.173974
3.16197  1.13354
3.23799  1.08042
3.314  0.953223
3.39001  0.931786
3.46603  0.594023
3.54204  1.72366
3.61805  8.41491
3.69407  6.23273
3.77008  1.15274
3.84609  1.21959
3.9221  0.421194
3.99812  0.629386
4.07413  0.180709
4.15014  1.24587
4.22616  0.561936
4.30217  0.414241
4.37818  0.719413
4.4542  0.510503
4.53021  1.2207
4.60622  0.727643
4.68224  0.101719
4.75825  1.67292
4.83426  0.535291
4.91027  0.299076
4.98629  0.559546
5.0623  0.316631
5.13831  0.949576
5.21433  0.761823
5.29034  1.20249
5.36635  0.380271
5.44237  1.17316
5.51838  1.06229
5.59439  0.649914
5.67041  0.284589
5.74642  0.752823
5.82243  1.11673
5.89844  -0.0923599
5.97446  2.01256
6.05047  1.08985
6.12648  1.25636
6.2025  0.404933
6.27851  0.191783
6.35452  0.791607
6.43054  0.793722
6.50655  0.106019
6.58256  1.30869
6.65857  2.86337
6.73459  0.0276599
6.8106  -0.406727
6.88661  0.369836
6.96263  1.38013
7.03864  3.5239
7.11465  6.38365
7.19067  14.728
7.26668  36.9807
7.34269  36.7317
7.41871  22.3884
7.49472  16.2161
7.57073  14.0854
7.64674  12.7982
7.72276  12.1557
7.79877  11.7008
7.87478  7.4832
7.9508  3.85177
8.02681  2.56491
8.10282  1.53465
8.17884  1.1896
8.25485  0.834765
8.33086  0.360448
8.40688  0.675561
8.48289  -0.235269
8.5589  0.370144
8.63491  0.489148
8.71093  0.495647
8.78694  -0.402693
8.86295  -0.237476
8.93897  0.319312
9.01498  0.0651293
9.09099  0.630454
9.16701  2.1885
9.24302  3.54858
9.31903  7.99707
9.39505  16.4599
9.47106  37.5726
9.54707  98.2115
9.62308  248.506
9.6991  342.108
9.77511  264.489
9.85112  183.266
9.92714  123.654
10.0031  81.9175
10.0792  59.2517
10.1552  42.9919
10.2312  29.7993
10.3072  17.5082
10.3832  9.07816
10.4592  3.9992
10.5352  1.25601
10.6113  -0.480958
10.6873  -1.07315
10.7633  -0.0437541
10.8393  0.632402
10.9153  3.02178
10.9913  1.82891
11.0673  0.101701
11.1433  0.0601585
11.2194  0.68141
11.2954  0.565304
11.3714  0.582805
11.4474  0.470849
11.5234  0.674452
11.5994  0.522138
11.6754  1.11126
11.7515  -0.140207
11.8275  -0.240141
11.9035  -0.265651
11.9795  -0.463998
12.0555  0.271008
12.1315  1.99489
12.2075  5.91249
12.2835  12.637
12.3596  27.2227
12.4356  62.1436
12.5116  156.245
12.5876  361.237
12.6636  548.128
12.7396  489.577
12.8156  294.4
12.8916  131.608
12.9677  55.8516
13.0437  28.9822
13.1197  17.4621
13.1957  11.6621
13.2717  6.80546
13.3477  4.73845
13.4237  2.75621
13.4998  2.04837
13.5758  2.07174
13.6518  1.70863
13.7278  1.34349
13.8038  0.842686
13.8798  0.589328
13.9558  0.222681
14.0318  -0.389825
14.1079  -0.150816
14.1839  -0.570821
14.2599  0.427889
14.3359  0.367634
14.4119  2.03063
14.4879  4.97816
14.5639  9.48861
14.6399  7.68635
14.716  4.46928
14.792  2.75211
14.868  1.64927
14.944  0.969011
15.02  0.443129
15.096  0.525243
15.172  0.81521
15.2481  0.695933
15.3241  0.931602
15.4001  0.380714
15.4761  1.4099
15.5521  1.39029
15.6281  1.32876
15.7041  2.3045
15.7801  1.00219
15.8562  0.467147
15.9322  0.780628
16.0082  0.116584
16.0842  0.284875
16.1602  0.446093
16.2362  0.0474052
16.3122  0.628397
16.3882  2.07392
16.4643  4.17055
16.5403  7.30529
16.6163  11.687
16.6923  19.3918
16.7683  25.4781
16.8443  29.9309
16.9203  30.7798
16.9964  29.5272
17.0724  26.9094
17.1484  22.29
17.2244  18.1801
17.3004  15.2654
17.3764  12.7769
17.4524  10.1424
17.5284  6.86891
17.6045  4.05324
17.6805  2.77229
17.7565  1.91465
17.8325  1.64075
17.9085  1.41385
17.9845  1.62017
18.0605  1.80844
18.1365  2.11324
18.2126  3.18398
18.2886  3.98318
18.3646  4.91338
18.4406  7.91812
18.5166  15.6035
18.5926  23.9137
18.6686  32.1712
18.7447  35.1163
18.8207  32.7938
18.8967  26.6797
18.9727  18.1348
19.0487  8.6983
19.1247  2.87703
19.2007  -0.0190711
19.2767  1.20331
19.3528  1.47165
19.4288  1.31582
19.5048  0.75025
19.5808  -0.0473446
19.6568  -0.0150284
19.7328  0.649308
19.8088  0.951396
19.8848  0.550043
19.9609  0.392852
20.0369  -0.0329873
20.1129  0.427536
20.1889  -0.223559
20.2649  0.3636
20.3409  -0.070998
20.4169  0.235624
20.493  0.120227
20.569  0.23203
20.645  -0.0393892
20.721  -0.00564641
20.797  0.265499
20.873  0.540938
20.949  0.716155
21.025  0.454188
21.1011  0.28836
21.1771  0.479285
21.2531  0.787654
21.3291  0.250675
21.4051  0.195603
21.4811  0.171845
21.5571  0.216343
21.6331  0.28544
21.7092  0.227446
21.7852  -0.0122849
21.8612  -0.138901
21.9372  0.135714
22.0132  -0.113166
22.0322  0.0844815