File: data/processed/Run2_XRD/3_ReMoB2_400psi_13p8GPa_S_P1_C1_D1w_025.dat
2.93393  0.631559
3.00995  0.803658
3.08596  0.0418209
3.16197  1.7614
3.23799  1.65214
3.314  2.69815
3.39001  14.8325
3.46603  37.0289
3.54204  7.37339
3.61805  1.48967
3.69407  1.32188
3.77008  1.29675
3.84609  0.674316
3.9221  1.38913
3.99812  0.820286
4.07413  -0.0957007
4.15014  0.618304
4.22616  0.40481
4.30217  0.331364
4.37818  0.0207785
4.4542  0.585486
4.53021  0.578113
4.60622  0.558752
4.68224  0.351919
4.75825  0.527676
4.83426  0.38573
4.91027  0.305139
4.98629  0.185255
5.0623  0.187786
5.13831  0.170693
5.21433  0.254068
5.29034  1.39061
5.36635  0.258376
5.44237  0.0333296
5.51838  0.0051903
5.59439  1.86032
5.67041  8.75983
5.74642  10.7425
5.82243  4.54574
5.89844  2.05434
5.97446  1.37386
6.05047  1.29746
6.12648  0.843152
6.2025  4.19168
6.27851  17.7459
6.35452  39.9644
6.43054  10.332
6.50655  10.1505
6.58256  6.14976
6.65857  2.86784
6.73459  9.49397
6.8106  49.2137
6.88661  84.0529
6.96263  60.2805
7.03864  17.1703
7.11465  4.1116
7.19067  0.958279
7.26668  -0.118678
7.34269  0.568498
7.41871  1.01903
7.49472  -0.00863786
7.57073  0.74079
7.64674  1.2222
7.72276  1.27148
7.79877  0.432052
7.87478  0.488082
7.9508  0.403789
8.02681  0.896196
8.10282  0.801775
8.17884  0.400802
8.25485  0.243486
8.33086  0.186194
8.40688  0.496398
8.48289  0.664048
8.5589  0.9732
8.63491  -0.0777563
8.71093  0.0931392
8.78694  -0.0592763
8.86295  0.0608616
8.93897  3.02036
9.01498  16.8068
9.09099  88.5396
9.16701  335.323
9.24302  690.073
9.31903  475.776
9.39505  303.291
9.47106  264.793
9.54707  121.412
9.62308  35.1794
9.6991  9.5502
9.77511  1.75286
9.85112  -0.5335
9.92714  1.49675
10.0031  3.86801
10.0792  3.4632
10.1552  9.40583
10.2312  27.5504
10.3072  36.213
10.3832  29.0991
10.4592  22.0772
10.5352  17.3547
10.6113  21.7963
10.6873  34.0672
10.7633  48.6304
10.8393  46.722
10.9153  31.9559
10.9913  16.1104
11.0673  7.25095
11.1433  5.42771
11.2194  3.56647
11.2954  1.57315
11.3714  0.804841
11.4474  -0.174857
11.5234  -0.509216
11.5994  -0.450069
11.6754  -0.568822
11.7515  1.14988
11.8275  4.7175
11.9035  5.20166
11.9795  9.94577
12.0555  27.5797
12.1315  63.189
12.2075  91.2019
12.2835  80.4571
12.3596  60.8536
12.4356  38.5572
12.5116  29.7409
12.5876  27.1123
12.6636  24.874
12.7396  26.8991
12.8156  33.2272
12.8916  46.0144
12.9677  60.0393
13.0437  54.4454
13.1197  27.8429
13.1957  11.1117
13.2717  3.93715
13.3477  1.58552
13.4237  0.04872
13.4998  -0.356655
13.5758  1.73963
13.6518  5.57217
13.7278  7.33071
13.8038  6.12641
13.8798  5.35746
13.9558  4.87624
14.0318  2.41067
14.1079  0.942933
14.1839  0.545136
14.2599  -0.427946
14.3359  0.426997
14.4119  0.544791
14.4879  0.852935
14.5639  0.578378
14.6399  0.510879
14.716  0.203858
14.792  -0.141547
14.868  0.00325465
14.944  0.260174
15.02  0.77894
15.096  2.07236
15.172  2.19362
15.2481  2.94203
15.3241  4.37807
15.4001  7.31539
15.4761  14.4991
15.5521  19.3977
15.6281  25.4175
15.7041  29.9706
15.7801  32.965
15.8562  35.6493
15.9322  29.4588
16.0082  20.9362
16.0842  15.3018
16.1602  10.2162
16.2362  6.0555
16.3122  4.02201
16.3882  2.33659
16.4643  1.32117
16.5403  1.28277
16.6163  0.377495
16.6923  0.180238
16.7683  0.0568658
16.8443  0.834794
16.9203  1.36087
16.9964  2.93266
17.0724  8.2506
17.1484  20.118
17.2244  36.4682
17.3004  53.5745
17.3764  57.1339
17.4524  55.2567
17.5284  50.694
17.6045  42.8659
17.6805  33.5022
17.7565  23.6778
17.8325  16.0611
17.9085  11.9335
17.9845  10.2164
18.0605  10.9902
18.1365  7.55279
18.2126  8.58623
18.2886  11.5512
18.3646  14.4319
18.4406  15.8717
18.5166  14.6561
18.5926  9.77754
18.6686  5.10502
18.7447  0.264612
18.8207  0.057175
18.8967  4.03073
18.9727  6.77259
19.0487  3.50842
19.1247  5.42868
19.2007  15.8494
19.2767  35.0783
19.3528  25.947
19.4288  11.9627
19.5048  2.46669
19.5808  0.273251
19.6568  -0.357003
19.7328  -0.450469
19.8088  0.16125
19.8848  0.276563
19.9609  0.657791
20.0369  1.00589
20.1129  0.613654
20.1889  0.967074
20.2649  0.681749
20.3409  0.675163
20.4169  0.912406
20.493  1.53996
20.569  1.54159
20.645  1.40049
20.721  1.1712
20.797  0.180399
20.873  0.0823803
20.949  -0.140453
21.025  0.356379
21.1011  0.41977
21.1771  0.771749
21.2531  0.676037
21.3291  0.0957045
21.4051  -0.00907133
21.4811  0.198585
21.5571  0.28032
21.6331  0.190073
21.7092  -0.0130871
21.7852  0.0220332
21.8612  0.196623
21.9372  -0.132344
22.0132  0.267802
22.0322  -0.141944