File: data/processed/Run2_XRD/4_ReMoB2_430psi_23p4GPa_S_P1_C1_D1w_031.dat
2.93393  0.66619
3.00995  -0.162729
3.08596  0.735277
3.16197  1.21908
3.23799  1.72817
3.314  2.48366
3.39001  7.50994
3.46603  46.1025
3.54204  22.8483
3.61805  2.46219
3.69407  0.615556
3.77008  0.901724
3.84609  1.30299
3.9221  0.33275
3.99812  1.41794
4.07413  -0.175088
4.15014  1.6579
4.22616  0.812771
4.30217  0.54982
4.37818  0.509949
4.4542  0.41337
4.53021  -0.0310153
4.60622  -0.0248945
4.68224  0.69088
4.75825  1.31098
4.83426  0.0380465
4.91027  0.588961
4.98629  0.704844
5.0623  0.460951
5.13831  0.284791
5.21433  0.337389
5.29034  0.699525
5.36635  0.994311
5.44237  0.907172
5.51838  0.401308
5.59439  0.347642
5.67041  2.89028
5.74642  10.1131
5.82243  6.74984
5.89844  2.08354
5.97446  1.96883
6.05047  0.478348
6.12648  1.1683
6.2025  1.36317
6.27851  6.20041
6.35452  31.104
6.43054  22.7683
6.50655  6.59085
6.58256  11.1885
6.65857  8.34105
6.73459  6.14113
6.8106  19.607
6.88661  72.0281
6.96263  139.784
7.03864  74.25
7.11465  15.7736
7.19067  3.18765
7.26668  0.551232
7.34269  0.396809
7.41871  0.270112
7.49472  -0.104986
7.57073  0.49552
7.64674  1.42137
7.72276  0.244411
7.79877  0.593006
7.87478  1.17783
7.9508  0.256256
8.02681  0.828944
8.10282  0.283204
8.17884  0.809746
8.25485  0.931676
8.33086  -0.223581
8.40688  0.548502
8.48289  0.202027
8.5589  0.353399
8.63491  0.532676
8.71093  0.0564325
8.78694  -0.0800689
8.86295  0.0957699
8.93897  1.31708
9.01498  5.51203
9.09099  21.5436
9.16701  75.4715
9.24302  231.047
9.31903  516.103
9.39505  455.211
9.47106  304.55
9.54707  245.808
9.62308  115.057
9.6991  37.8343
9.77511  12.589
9.85112  2.81484
9.92714  -0.0298086
10.0031  -0.607975
10.0792  0.145651
10.1552  1.28495
10.2312  5.28556
10.3072  18.2035
10.3832  29.1428
10.4592  32.0169
10.5352  33.4601
10.6113  28.1547
10.6873  29.1387
10.7633  37.2447
10.8393  48.2209
10.9153  53.8106
10.9913  43.6091
11.0673  27.296
11.1433  14.0746
11.2194  6.78187
11.2954  4.03082
11.3714  2.49397
11.4474  1.49348
11.5234  0.267293
11.5994  -0.686812
11.6754  -0.970658
11.7515  -0.670691
11.8275  0.324612
11.9035  2.09559
11.9795  6.37555
12.0555  9.4399
12.1315  16.749
12.2075  33.3259
12.2835  67.8877
12.3596  99.4594
12.4356  83.1341
12.5116  57.8011
12.5876  41.8537
12.6636  35.9734
12.7396  35.3934
12.8156  36.7578
12.8916  36.3379
12.9677  39.172
13.0437  45.0784
13.1197  49.8782
13.1957  46.4413
13.2717  29.6839
13.3477  11.3011
13.4237  2.94338
13.4998  0.452272
13.5758  -0.771857
13.6518  0.292336
13.7278  1.85166
13.8038  4.84703
13.8798  6.73417
13.9558  9.2575
14.0318  10.4109
14.1079  8.63684
14.1839  3.20725
14.2599  0.402066
14.3359  0.329893
14.4119  -0.235017
14.4879  -0.302208
14.5639  0.358574
14.6399  0.360509
14.716  0.991729
14.792  0.859796
14.868  0.756703
14.944  0.507458
15.02  0.215622
15.096  0.307748
15.172  0.708683
15.2481  1.70562
15.3241  1.73503
15.4001  2.47171
15.4761  4.55553
15.5521  7.96739
15.6281  14.2282
15.7041  19.479
15.7801  23.3527
15.8562  28.6807
15.9322  31.3201
16.0082  33.0352
16.0842  32.8611
16.1602  29.6445
16.2362  21.2275
16.3122  13.8492
16.3882  7.78062
16.4643  4.73082
16.5403  2.76388
16.6163  1.09963
16.6923  0.838268
16.7683  0.406697
16.8443  0.132116
16.9203  0.452973
16.9964  1.43569
17.0724  2.76217
17.1484  5.3974
17.2244  9.87854
17.3004  20.1424
17.3764  40.1104
17.4524  63.9433
17.5284  73.1115
17.6045  71.2525
17.6805  61.1697
17.7565  44.8002
17.8325  31.6509
17.9085  22.2115
17.9845  15.4414
18.0605  10.327
18.1365  7.5136
18.2126  6.38321
18.2886  5.99329
18.3646  6.59513
18.4406  8.39356
18.5166  11.5955
18.5926  13.2507
18.6686  12.8657
18.7447  9.93356
18.8207  4.76234
18.8967  1.47865
18.9727  -0.310265
19.0487  -0.270338
19.1247  3.0966
19.2007  5.99004
19.2767  6.64162
19.3528  12.0648
19.4288  24.2297
19.5048  20.8568
19.5808  9.66897
19.6568  2.57718
19.7328  0.673235
19.8088  -0.429523
19.8848  -0.0732489
19.9609  0.0123074
20.0369  0.252592
20.1129  0.617803
20.1889  1.56302
20.2649  1.67534
20.3409  2.11735
20.4169  1.27278
20.493  1.04018
20.569  0.828721
20.645  0.512626
20.721  0.81353
20.797  1.17371
20.873  0.768817
20.949  0.582873
21.025  0.252748
21.1011  -0.076014
21.1771  0.762141
21.2531  0.765817
21.3291  0.771195
21.4051  0.00775198
21.4811  0.245319
21.5571  0.0166721
21.6331  0.0677085
21.7092  0.227221
21.7852  -0.182505
21.8612  0.102399
21.9372  0.061196
22.0132  0.0211547
22.0322  -0.00974723