File: data/processed/Run2_XRD/5_ReMoB2_450psi_30p5GPa_S_P1_C1_D1w_037.dat
2.93393  0.458681
3.00995  0.454209
3.08596  1.17683
3.16197  0.797874
3.23799  1.04882
3.314  1.45895
3.39001  6.0197
3.46603  29.8284
3.54204  21.5902
3.61805  2.77302
3.69407  1.05924
3.77008  1.73586
3.84609  0.634297
3.9221  0.400991
3.99812  0.320104
4.07413  0.456797
4.15014  0.78038
4.22616  1.41813
4.30217  0.57458
4.37818  0.622614
4.4542  0.910542
4.53021  0.767881
4.60622  0.513183
4.68224  0.251768
4.75825  0.821136
4.83426  1.36113
4.91027  1.01808
4.98629  0.53369
5.0623  0.339634
5.13831  -0.0781939
5.21433  0.445843
5.29034  0.573594
5.36635  0.791318
5.44237  -0.00851631
5.51838  0.14592
5.59439  0.370219
5.67041  1.26564
5.74642  6.62762
5.82243  5.74735
5.89844  2.24245
5.97446  0.956169
6.05047  0.133615
6.12648  0.358918
6.2025  0.210895
6.27851  2.48387
6.35452  15.5206
6.43054  22.9101
6.50655  4.09297
6.58256  7.81424
6.65857  12.1116
6.73459  8.63668
6.8106  13.9124
6.88661  47.6737
6.96263  106.247
7.03864  89.6361
7.11465  23.2752
7.19067  4.35814
7.26668  2.01107
7.34269  0.316787
7.41871  0.642791
7.49472  0.647225
7.57073  -0.0966993
7.64674  0.103302
7.72276  0.913066
7.79877  0.509207
7.87478  0.625901
7.9508  0.513646
8.02681  0.582258
8.10282  0.0225156
8.17884  0.168577
8.25485  0.294476
8.33086  -0.0521548
8.40688  0.200158
8.48289  0.687018
8.5589  0.710307
8.63491  0.583034
8.71093  -0.0946537
8.78694  0.32656
8.86295  0.178143
8.93897  0.759386
9.01498  2.31692
9.09099  8.29383
9.16701  28.1943
9.24302  91.9656
9.31903  329.665
9.39505  755.335
9.47106  520.519
9.54707  310.726
9.62308  231.9
9.6991  92.9485
9.77511  29.4238
9.85112  9.09676
9.92714  2.01424
10.0031  -0.517607
10.0792  0.27429
10.1552  1.82131
10.2312  3.12097
10.3072  7.4948
10.3832  21.6551
10.4592  29.9679
10.5352  28.6013
10.6113  24.0828
10.6873  20.3204
10.7633  23.332
10.8393  28.9747
10.9153  34.463
10.9913  36.9177
11.0673  31.7537
11.1433  25.1175
11.2194  13.3145
11.2954  6.11146
11.3714  3.23017
11.4474  2.46251
11.5234  1.36286
11.5994  0.486736
11.6754  -0.176874
11.7515  -0.423658
11.8275  -1.31327
11.9035  0.520914
11.9795  2.51041
12.0555  7.47016
12.1315  11.5308
12.2075  15.7971
12.2835  28.4694
12.3596  57.9686
12.4356  89.9367
12.5116  81.3751
12.5876  57.7986
12.6636  42.3374
12.7396  36.1934
12.8156  35.0277
12.8916  34.4455
12.9677  34.8334
13.0437  37.5333
13.1197  43.7655
13.1957  53.9111
13.2717  59.8263
13.3477  37.6894
13.4237  14.0456
13.4998  3.86626
13.5758  -0.228848
13.6518  0.478017
13.7278  0.660652
13.8038  3.13052
13.8798  5.69254
13.9558  8.07106
14.0318  6.71839
14.1079  6.99089
14.1839  4.84374
14.2599  0.766102
14.3359  0.0452493
14.4119  -0.210624
14.4879  -0.0551283
14.5639  0.0356782
14.6399  0.288013
14.716  0.572316
14.792  0.214516
14.868  0.93997
14.944  0.673932
15.02  -0.0541766
15.096  0.206078
15.172  0.103741
15.2481  0.679859
15.3241  0.4044
15.4001  1.62251
15.4761  2.35859
15.5521  4.55098
15.6281  7.73811
15.7041  14.9198
15.7801  24.6825
15.8562  26.1917
15.9322  24.775
16.0082  26.24
16.0842  27.6377
16.1602  29.0336
16.2362  27.0346
16.3122  21.4592
16.3882  14.241
16.4643  8.84015
16.5403  5.29268
16.6163  2.93466
16.6923  1.99387
16.7683  0.982934
16.8443  0.945675
16.9203  0.500394
16.9964  0.438489
17.0724  0.656169
17.1484  1.6572
17.2244  3.42492
17.3004  6.29096
17.3764  12.1923
17.4524  23.9554
17.5284  41.221
17.6045  61.336
17.6805  76.5083
17.7565  75.6753
17.8325  57.6757
17.9085  41.0353
17.9845  29.3346
18.0605  20.4678
18.1365  13.3691
18.2126  8.14012
18.2886  6.13481
18.3646  4.47223
18.4406  4.60317
18.5166  4.69873
18.5926  5.63021
18.6686  8.5804
18.7447  9.34896
18.8207  8.92224
18.8967  6.86553
18.9727  4.31936
19.0487  1.02199
19.1247  -0.76354
19.2007  -0.290212
19.2767  2.36326
19.3528  5.39537
19.4288  8.01411
19.5048  19.3475
19.5808  28.1764
19.6568  20.7338
19.7328  8.5406
19.8088  3.44514
19.8848  1.15361
19.9609  0.107444
20.0369  0.0974542
20.1129  -0.104993
20.1889  0.0980264
20.2649  0.193936
20.3409  0.678665
20.4169  0.666321
20.493  0.222246
20.569  0.0520356
20.645  0.0176017
20.721  0.411829
20.797  0.59299
20.873  0.847035
20.949  0.688935
21.025  0.4912
21.1011  0.174857
21.1771  0.237957
21.2531  0.279845
21.3291  0.159255
21.4051  0.282309
21.4811  0.16402
21.5571  0.19042
21.6331  0.146814
21.7092  0.0122455
21.7852  0.0157648
21.8612  -0.133671
21.9372  0.132401
22.0132  -0.139985
22.0322  0.0892365