File: data/processed/Run2_XRD/6_ReMoB2_470psi_39p0GPa_S_P1_C1_D1w_043.dat
2.93393  0.659486
3.00995  0.345368
3.08596  0.748111
3.16197  1.14154
3.23799  1.4308
3.314  1.40986
3.39001  5.25866
3.46603  21.6636
3.54204  21.3043
3.61805  2.36465
3.69407  0.919578
3.77008  1.04121
3.84609  0.288209
3.9221  0.0535074
3.99812  0.888796
4.07413  0.421447
4.15014  0.715856
4.22616  0.666716
4.30217  1.46731
4.37818  1.78761
4.4542  0.419413
4.53021  0.204461
4.60622  0.560666
4.68224  1.13304
4.75825  1.35222
4.83426  0.695863
4.91027  0.441391
4.98629  0.655607
5.0623  -0.154449
5.13831  0.177363
5.21433  0.172496
5.29034  0.513067
5.36635  0.241927
5.44237  0.432279
5.51838  0.449118
5.59439  0.0649942
5.67041  0.249387
5.74642  7.95323
5.82243  8.43052
5.89844  3.15997
5.97446  2.18133
6.05047  0.812252
6.12648  0.409325
6.2025  0.343696
6.27851  2.95574
6.35452  12.1241
6.43054  37.8729
6.50655  8.78186
6.58256  3.62585
6.65857  10.3391
6.73459  10.6623
6.8106  9.89114
6.88661  27.8541
6.96263  87.2575
7.03864  101.732
7.11465  30.0839
7.19067  7.31469
7.26668  2.7283
7.34269  0.963284
7.41871  0.876865
7.49472  -0.0608628
7.57073  0.593553
7.64674  -0.00807631
7.72276  0.124257
7.79877  0.858365
7.87478  0.830782
7.9508  0.404733
8.02681  0.271944
8.10282  0.0629881
8.17884  1.14967
8.25485  0.739745
8.33086  0.00678361
8.40688  0.399839
8.48289  -0.0923765
8.5589  0.47321
8.63491  0.0980072
8.71093  0.609695
8.78694  0.366303
8.86295  -0.0331332
8.93897  -0.156825
9.01498  1.29076
9.09099  4.71253
9.16701  13.5708
9.24302  39.4402
9.31903  129.579
9.39505  440.044
9.47106  674.895
9.54707  410.783
9.62308  260.093
9.6991  157.124
9.77511  61.3509
9.85112  21.2325
9.92714  6.42451
10.0031  1.15586
10.0792  -0.797957
10.1552  -0.0270961
10.2312  1.41136
10.3072  3.49509
10.3832  8.51827
10.4592  20.9617
10.5352  28.411
10.6113  27.7238
10.6873  21.3228
10.7633  19.8517
10.8393  21.628
10.9153  26.1136
10.9913  29.7185
11.0673  30.3753
11.1433  28.6296
11.2194  23.6474
11.2954  13.8293
11.3714  6.19778
11.4474  3.972
11.5234  1.95311
11.5994  1.19434
11.6754  0.429189
11.7515  0.159936
11.8275  -0.793271
11.9035  -0.876773
11.9795  -0.674811
12.0555  1.94855
12.1315  6.12129
12.2075  10.8649
12.2835  17.9802
12.3596  33.1852
12.4356  67.6236
12.5116  113.841
12.5876  125.876
12.6636  84.2519
12.7396  56.487
12.8156  44.7313
12.8916  40.4477
12.9677  38.54
13.0437  37.4907
13.1197  38.9027
13.1957  47.3113
13.2717  76.0093
13.3477  121.74
13.4237  64.5647
13.4998  21.5007
13.5758  5.09804
13.6518  0.281714
13.7278  0.789674
13.8038  2.10645
13.8798  3.30248
13.9558  5.11565
14.0318  6.3762
14.1079  8.09718
14.1839  7.34744
14.2599  2.70458
14.3359  0.933379
14.4119  -0.660518
14.4879  -0.382837
14.5639  -0.487193
14.6399  0.0496329
14.716  0.687597
14.792  0.359379
14.868  0.417389
14.944  0.671975
15.02  0.538342
15.096  0.182226
15.172  0.572432
15.2481  0.0190277
15.3241  0.21199
15.4001  0.135002
15.4761  1.75759
15.5521  1.55542
15.6281  3.43067
15.7041  5.19698
15.7801  8.38338
15.8562  13.889
15.9322  20.7938
16.0082  20.8748
16.0842  22.9211
16.1602  26.9588
16.2362  29.3445
16.3122  28.1991
16.3882  24.4344
16.4643  17.728
16.5403  10.469
16.6163  6.05702
16.6923  4.0746
16.7683  3.03483
16.8443  1.49861
16.9203  1.48855
16.9964  0.84027
17.0724  0.298719
17.1484  1.04581
17.2244  1.85089
17.3004  2.61724
17.3764  4.98288
17.4524  8.60153
17.5284  15.4483
17.6045  28.0825
17.6805  48.5982
17.7565  75.5624
17.8325  93.0203
17.9085  77.6699
17.9845  56.8977
18.0605  40.8244
18.1365  27.3648
18.2126  16.1146
18.2886  9.80211
18.3646  6.25484
18.4406  3.85508
18.5166  2.58932
18.5926  1.94215
18.6686  3.34022
18.7447  5.40369
18.8207  7.93398
18.8967  10.728
18.9727  12.4356
19.0487  9.21197
19.1247  3.47013
19.2007  -0.279404
19.2767  -0.742439
19.3528  -0.0847384
19.4288  1.7673
19.5048  4.4759
19.5808  9.65022
19.6568  17.3997
19.7328  19.551
19.8088  12.3891
19.8848  5.46542
19.9609  2.43931
20.0369  1.00523
20.1129  0.115779
20.1889  0.0486458
20.2649  0.195614
20.3409  0.365234
20.4169  0.166579
20.493  0.158367
20.569  0.218273
20.645  -0.132609
20.721  0.0315334
20.797  0.14199
20.873  0.487446
20.949  0.738308
21.025  0.696667
21.1011  0.546829
21.1771  0.589209
21.2531  0.48417
21.3291  0.0391723
21.4051  0.105063
21.4811  0.019236
21.5571  0.212553
21.6331  0.119575
21.7092  0.0557566
21.7852  0.382658
21.8612  0.137377
21.9372  0.159498
22.0132  -0.0224316
22.0322  0.0400988