File: data/processed/Run2_XRD/7_ReMoB2_490psi_45p0GPa_S_P1_C1_D1w_049.dat
2.93393  0.576175
3.00995  0.786068
3.08596  0.765226
3.16197  0.308112
3.23799  1.31288
3.314  0.964775
3.39001  3.74198
3.46603  19.5542
3.54204  27.8273
3.61805  4.2162
3.69407  1.8072
3.77008  1.62264
3.84609  -0.137428
3.9221  0.136563
3.99812  0.659647
4.07413  0.219948
4.15014  0.898649
4.22616  1.09056
4.30217  0.944973
4.37818  0.285465
4.4542  0.626704
4.53021  0.922523
4.60622  1.08144
4.68224  0.460485
4.75825  0.522345
4.83426  0.419152
4.91027  0.52846
4.98629  0.758066
5.0623  -0.0532926
5.13831  1.3553
5.21433  0.138792
5.29034  0.538214
5.36635  1.06943
5.44237  0.169416
5.51838  0.205271
5.59439  0.649901
5.67041  1.19002
5.74642  4.17928
5.82243  6.99146
5.89844  2.08511
5.97446  1.25775
6.05047  1.66548
6.12648  0.328766
6.2025  0.0185449
6.27851  2.28986
6.35452  6.79713
6.43054  29.8189
6.50655  10.8165
6.58256  2.92867
6.65857  6.416
6.73459  15.1328
6.8106  9.87097
6.88661  17.4736
6.96263  67.3612
7.03864  107.107
7.11465  42.4195
7.19067  11.0709
7.26668  3.35082
7.34269  1.61731
7.41871  1.36955
7.49472  0.243894
7.57073  -0.0959731
7.64674  0.656926
7.72276  0.31918
7.79877  0.766119
7.87478  0.206337
7.9508  0.289196
8.02681  0.364486
8.10282  0.453039
8.17884  0.0485229
8.25485  0.0367244
8.33086  0.530713
8.40688  0.797146
8.48289  -0.131458
8.5589  -0.0943449
8.63491  0.707733
8.71093  0.376218
8.78694  0.166104
8.86295  0.0736319
8.93897  0.955528
9.01498  0.943534
9.09099  4.17649
9.16701  12.3104
9.24302  29.0492
9.31903  68.9519
9.39505  204.796
9.47106  495.397
9.54707  502.935
9.62308  320.564
9.6991  197.377
9.77511  100.506
9.85112  38.3086
9.92714  14.1351
10.0031  4.5743
10.0792  0.931855
10.1552  -0.935087
10.2312  -0.186488
10.3072  0.268872
10.3832  3.20029
10.4592  10.0114
10.5352  20.2205
10.6113  27.6198
10.6873  26.5515
10.7633  19.4487
10.8393  20.4753
10.9153  24.8339
10.9913  30.4376
11.0673  31.7877
11.1433  31.7913
11.2194  29.9892
11.2954  30.3914
11.3714  17.3233
11.4474  8.89208
11.5234  3.52071
11.5994  1.74359
11.6754  1.20597
11.7515  -0.387715
11.8275  -0.515107
11.9035  -0.995106
11.9795  -0.0327626
12.0555  2.81528
12.1315  6.28699
12.2075  11.4032
12.2835  15.9285
12.3596  24.0068
12.4356  37.7996
12.5116  69.865
12.5876  123.037
12.6636  149.713
12.7396  94.5431
12.8156  53.9951
12.8916  41.6946
12.9677  37.36
13.0437  35.101
13.1197  33.4254
13.1957  33.1604
13.2717  33.7451
13.3477  43.8344
13.4237  59.2587
13.4998  46.0523
13.5758  18.144
13.6518  4.06216
13.7278  -0.410483
13.8038  0.407601
13.8798  2.0524
13.9558  3.25537
14.0318  5.90366
14.1079  9.6764
14.1839  14.7611
14.2599  12.4879
14.3359  5.65462
14.4119  0.64769
14.4879  -0.719782
14.5639  -0.561122
14.6399  -0.0710468
14.716  0.0668304
14.792  0.454664
14.868  0.756408
14.944  0.644117
15.02  -0.00766849
15.096  0.808227
15.172  0.339758
15.2481  -0.0872163
15.3241  0.0947872
15.4001  0.187116
15.4761  0.281728
15.5521  1.66591
15.6281  2.02946
15.7041  3.09619
15.7801  4.79497
15.8562  7.26266
15.9322  11.7353
16.0082  18.8706
16.0842  25.1844
16.1602  33.427
16.2362  30.4924
16.3122  30.6085
16.3882  30.9509
16.4643  28.0916
16.5403  20.3446
16.6163  12.4008
16.6923  7.83428
16.7683  5.06939
16.8443  3.04651
16.9203  2.35232
16.9964  1.49037
17.0724  1.03325
17.1484  1.18089
17.2244  1.33418
17.3004  1.73904
17.3764  3.54246
17.4524  4.62742
17.5284  7.42852
17.6045  11.5726
17.6805  21.3106
17.7565  38.1225
17.8325  60.2722
17.9085  74.4456
17.9845  72.4576
18.0605  59.3266
18.1365  42.0404
18.2126  26.9969
18.2886  15.1714
18.3646  8.04085
18.4406  4.64404
18.5166  2.75407
18.5926  1.50959
18.6686  0.621478
18.7447  0.900296
18.8207  1.87265
18.8967  4.49701
18.9727  6.90508
19.0487  5.9982
19.1247  4.15229
19.2007  1.89695
19.2767  0.0461308
19.3528  -0.744084
19.4288  -0.38656
19.5048  0.813066
19.5808  2.87679
19.6568  6.87173
19.7328  13.8577
19.8088  16.3036
19.8848  11.2444
19.9609  6.24271
20.0369  2.8044
20.1129  1.09393
20.1889  0.494794
20.2649  0.195432
20.3409  0.111078
20.4169  0.0494605
20.493  0.275138
20.569  0.279903
20.645  -0.00884215
20.721  0.104615
20.797  0.0727471
20.873  -0.0805496
20.949  0.150368
21.025  0.703817
21.1011  0.410841
21.1771  0.353028
21.2531  0.605294
21.3291  0.18165
21.4051  0.247596
21.4811  0.174335
21.5571  -0.0744929
21.6331  0.0473453
21.7092  0.485481
21.7852  -0.147083
21.8612  0.025765
21.9372  0.00852549
22.0132  -0.10888
22.0322  0.0483411