File: data/processed/Run2_XRD/8_ReMoB2_500psi_50p0GPa_S_P1_C1_D1w_055.dat
2.93393  0.549653
3.00995  0.348543
3.08596  0.318863
3.16197  0.582946
3.23799  0.196052
3.314  0.719107
3.39001  1.96175
3.46603  18.4124
3.54204  30.9111
3.61805  4.24709
3.69407  1.21928
3.77008  0.521592
3.84609  0.957434
3.9221  0.874189
3.99812  0.229321
4.07413  -0.0321091
4.15014  0.729592
4.22616  0.566824
4.30217  0.509317
4.37818  0.449558
4.4542  1.33219
4.53021  0.874872
4.60622  -0.149641
4.68224  0.423673
4.75825  0.600076
4.83426  0.334213
4.91027  0.0260321
4.98629  0.302878
5.0623  0.574893
5.13831  0.399542
5.21433  0.580434
5.29034  0.299985
5.36635  0.0865951
5.44237  0.295277
5.51838  0.130942
5.59439  0.55208
5.67041  0.532825
5.74642  2.96956
5.82243  5.00468
5.89844  2.34044
5.97446  1.00648
6.05047  -0.145433
6.12648  0.42983
6.2025  0.377948
6.27851  0.97208
6.35452  4.45328
6.43054  22.4713
6.50655  8.34549
6.58256  2.34231
6.65857  5.953
6.73459  13.8703
6.8106  11.2915
6.88661  16.4636
6.96263  62.5321
7.03864  111.798
7.11465  51.1557
7.19067  13.2232
7.26668  3.73158
7.34269  2.08567
7.41871  1.01625
7.49472  0.787458
7.57073  1.02319
7.64674  -0.356556
7.72276  0.687903
7.79877  0.957196
7.87478  0.60232
7.9508  1.15384
8.02681  0.562773
8.10282  0.123563
8.17884  0.144697
8.25485  0.585715
8.33086  0.254028
8.40688  0.43652
8.48289  0.522448
8.5589  0.144008
8.63491  0.747745
8.71093  -0.0353418
8.78694  0.419966
8.86295  0.636753
8.93897  -0.103737
9.01498  1.29861
9.09099  5.06126
9.16701  14.3053
9.24302  30.7649
9.31903  64.5751
9.39505  167.521
9.47106  437.672
9.54707  527.091
9.62308  361.576
9.6991  221.419
9.77511  121.093
9.85112  48.076
9.92714  17.4628
10.0031  5.48693
10.0792  1.28349
10.1552  -0.1439
10.2312  -0.679731
10.3072  0.394403
10.3832  1.37976
10.4592  6.18945
10.5352  15.7622
10.6113  24.9435
10.6873  26.9302
10.7633  19.3952
10.8393  18.5437
10.9153  22.4354
10.9913  28.1628
11.0673  32.5767
11.1433  33.1238
11.2194  31.1318
11.2954  31.0589
11.3714  20.5439
11.4474  8.73277
11.5234  4.3491
11.5994  2.65394
11.6754  2.02037
11.7515  -0.24186
11.8275  -0.520867
11.9035  -0.447806
11.9795  -0.0414493
12.0555  2.89432
12.1315  8.81432
12.2075  12.9756
12.2835  15.4365
12.3596  20.297
12.4356  29.6702
12.5116  50.8556
12.5876  86.5032
12.6636  121.828
12.7396  92.7441
12.8156  55.1646
12.8916  41.1009
12.9677  36.9538
13.0437  34.3965
13.1197  33.0694
13.1957  31.9893
13.2717  32.4463
13.3477  35.6967
13.4237  45.7908
13.4998  46.1546
13.5758  23.2422
13.6518  5.90999
13.7278  0.126225
13.8038  -0.422429
13.8798  1.55352
13.9558  2.61087
14.0318  6.08884
14.1079  10.3999
14.1839  15.6548
14.2599  15.7395
14.3359  9.47978
14.4119  2.25067
14.4879  -0.315852
14.5639  -0.54512
14.6399  -0.558067
14.716  0.11589
14.792  -0.140092
14.868  0.316889
14.944  1.04189
15.02  0.333904
15.096  0.242274
15.172  0.532941
15.2481  0.572785
15.3241  -0.014139
15.4001  0.162467
15.4761  0.36847
15.5521  0.865203
15.6281  1.8588
15.7041  2.78693
15.7801  4.21498
15.8562  6.17649
15.9322  9.98122
16.0082  16.282
16.0842  20.6104
16.1602  23.3083
16.2362  27.4163
16.3122  29.9993
16.3882  31.2858
16.4643  28.7554
16.5403  22.9585
16.6163  15.0173
16.6923  8.7716
16.7683  5.63649
16.8443  3.60439
16.9203  2.30119
16.9964  1.79911
17.0724  1.34563
17.1484  1.40653
17.2244  0.945547
17.3004  1.51616
17.3764  2.8893
17.4524  4.07062
17.5284  6.12656
17.6045  9.93681
17.6805  16.5787
17.7565  28.5159
17.8325  48.8059
17.9085  64.5941
17.9845  67.3589
18.0605  58.591
18.1365  44.5503
18.2126  29.1572
18.2886  16.5459
18.3646  9.38729
18.4406  4.993
18.5166  3.09551
18.5926  1.54696
18.6686  0.625522
18.7447  0.370311
18.8207  0.773542
18.8967  2.49793
18.9727  4.69718
19.0487  5.76575
19.1247  4.86662
19.2007  3.29623
19.2767  1.05608
19.3528  -0.430868
19.4288  -0.560216
19.5048  0.286303
19.5808  1.9353
19.6568  4.19874
19.7328  9.24101
19.8088  13.9929
19.8848  12.2314
19.9609  7.24935
20.0369  3.80487
20.1129  1.27765
20.1889  0.808082
20.2649  0.11798
20.3409  0.155459
20.4169  0.321659
20.493  0.39139
20.569  -0.0174976
20.645  -0.208987
20.721  0.480862
20.797  0.454352
20.873  0.465855
20.949  0.0790087
21.025  0.231714
21.1011  0.345621
21.1771  0.341522
21.2531  0.435859
21.3291  -0.0733606
21.4051  0.310116
21.4811  0.135733
21.5571  0.46683
21.6331  0.115868
21.7092  0.254838
21.7852  0.0762498
21.8612  0.0611266
21.9372  -0.0804333
22.0132  -0.0433456
22.0322  0.00946185