File: data/processed/Run2_XRD/9_ReMoB2_515psi_noRuby_S_P1_C1_D1w_061.dat
2.93393  0.437009
3.00995  1.29817
3.08596  1.05204
3.16197  0.563888
3.23799  1.49761
3.314  1.14785
3.39001  3.2264
3.46603  12.9377
3.54204  19.7297
3.61805  4.63274
3.69407  1.83963
3.77008  0.757706
3.84609  0.254244
3.9221  1.1771
3.99812  1.14474
4.07413  1.07842
4.15014  1.53146
4.22616  1.32139
4.30217  0.549687
4.37818  0.866187
4.4542  0.962889
4.53021  0.309573
4.60622  0.217931
4.68224  0.422681
4.75825  1.10824
4.83426  0.334157
4.91027  0.254261
4.98629  0.686849
5.0623  0.0177834
5.13831  0.838289
5.21433  0.491278
5.29034  1.28068
5.36635  0.748866
5.44237  -0.222482
5.51838  1.06913
5.59439  -0.004321
5.67041  0.7721
5.74642  1.54769
5.82243  4.87651
5.89844  2.09956
5.97446  0.427758
6.05047  0.439993
6.12648  0.219128
6.2025  0.614976
6.27851  0.26832
6.35452  2.46026
6.43054  17.4978
6.50655  9.48453
6.58256  1.30923
6.65857  3.40167
6.73459  10.6798
6.8106  10.975
6.88661  12.9596
6.96263  43.4722
7.03864  84.5306
7.11465  45.2498
7.19067  13.5903
7.26668  4.66005
7.34269  1.28281
7.41871  0.847208
7.49472  0.436407
7.57073  0.1013
7.64674  0.365237
7.72276  0.147579
7.79877  0.0855544
7.87478  1.00439
7.9508  0.578072
8.02681  0.731485
8.10282  -0.171629
8.17884  0.582952
8.25485  0.577192
8.33086  0.337284
8.40688  0.647918
8.48289  0.594069
8.5589  0.651062
8.63491  -0.118429
8.71093  0.55309
8.78694  0.0954122
8.86295  -0.373321
8.93897  -0.0617715
9.01498  1.01356
9.09099  3.97529
9.16701  14.7942
9.24302  34.2269
9.31903  62.8928
9.39505  120.977
9.47106  279.725
9.54707  471.886
9.62308  405.906
9.6991  249.615
9.77511  152.378
9.85112  66.2562
9.92714  24.9258
10.0031  8.54935
10.0792  1.92356
10.1552  -0.325352
10.2312  -0.716745
10.3072  0.192305
10.3832  1.78032
10.4592  3.74177
10.5352  9.4606
10.6113  17.6362
10.6873  21.1909
10.7633  19.3644
10.8393  17.3685
10.9153  19.9454
10.9913  23.4491
11.0673  27.4265
11.1433  29.9779
11.2194  28.1968
11.2954  30.2793
11.3714  26.7439
11.4474  15.245
11.5234  7.37561
11.5994  4.2269
11.6754  2.09502
11.7515  1.2983
11.8275  -0.427835
11.9035  -0.949889
11.9795  0.430231
12.0555  4.90143
12.1315  15.9784
12.2075  23.3408
12.2835  20.3802
12.3596  18.9085
12.4356  24.6363
12.5116  38.9523
12.5876  68.0584
12.6636  109.343
12.7396  138.327
12.8156  75.7363
12.8916  45.0203
12.9677  36.2319
13.0437  32.557
13.1197  28.3207
13.1957  27.327
13.2717  26.8345
13.3477  26.7513
13.4237  30.6185
13.4998  34.7492
13.5758  28.5714
13.6518  11.7215
13.7278  2.02239
13.8038  -0.0169229
13.8798  0.819254
13.9558  2.10305
14.0318  4.67739
14.1079  6.5481
14.1839  9.19431
14.2599  11.5305
14.3359  7.47415
14.4119  1.42874
14.4879  -0.86931
14.5639  -0.442696
14.6399  -0.243587
14.716  0.18395
14.792  0.18795
14.868  0.906004
14.944  0.947679
15.02  0.0493845
15.096  1.01738
15.172  0.782812
15.2481  0.532744
15.3241  0.0295794
15.4001  0.283114
15.4761  0.386111
15.5521  0.430615
15.6281  1.28628
15.7041  2.45359
15.7801  3.03402
15.8562  5.04812
15.9322  7.68883
16.0082  11.3691
16.0842  16.128
16.1602  18.5441
16.2362  20.7622
16.3122  23.1531
16.3882  25.9827
16.4643  27.774
16.5403  25.6956
16.6163  18.5188
16.6923  11.6913
16.7683  6.96541
16.8443  4.71651
16.9203  3.06955
16.9964  1.85896
17.0724  1.28945
17.1484  1.1157
17.2244  1.68419
17.3004  1.83323
17.3764  1.89868
17.4524  3.374
17.5284  5.02403
17.6045  6.6776
17.6805  10.6918
17.7565  17.6
17.8325  29.1831
17.9085  46.0873
17.9845  59.8153
18.0605  61.63
18.1365  54.6261
18.2126  50.1775
18.2886  28.7574
18.3646  14.8211
18.4406  8.75764
18.5166  4.59207
18.5926  2.25699
18.6686  0.979141
18.7447  0.122245
18.8207  -0.117081
18.8967  1.33215
18.9727  3.39101
19.0487  4.82535
19.1247  4.56075
19.2007  2.84502
19.2767  1.67329
19.3528  0.0435278
19.4288  -0.417986
19.5048  -0.353756
19.5808  0.38029
19.6568  1.67885
19.7328  3.31971
19.8088  7.13427
19.8848  9.9725
19.9609  7.87819
20.0369  4.819
20.1129  2.43879
20.1889  1.39295
20.2649  0.358891
20.3409  0.31751
20.4169  0.223353
20.493  0.0322787
20.569  0.471145
20.645  0.321232
20.721  0.00853223
20.797  -0.0918835
20.873  0.314025
20.949  0.401382
21.025  0.307544
21.1011  0.489064
21.1771  0.526068
21.2531  0.555384
21.3291  0.00912488
21.4051  -0.0239065
21.4811  0.409706
21.5571  0.20477
21.6331  0.234988
21.7092  0.161561
21.7852  0.204685
21.8612  -0.0129365
21.9372  0.029281
22.0132  0.112657
22.0322  -0.0671076